UBB Dec12 2136 Average.d24 - THz Start: 187.69 mm, 1000 points, 10 fs - Pump Probe Time: 1.70 ps, Pump Motor Position: 95.1975 mm, 46 points, -50 fs - Wait: 400 ms -  Averages: 1 - Lock-In 1: 500 mV/mA, 100 ms - Lock-In 2: 500 mV/mA, 100 ms
0.010000	0.005748	-0.000193
0.020000	0.005086	-0.000214
0.030000	0.005391	-0.000010
0.040000	0.004578	0.000224
0.050000	0.004893	0.000275
0.060000	0.005310	0.000061
0.070000	0.005086	-0.000315
0.080000	0.005157	-0.000346
0.090000	0.005249	-0.000387
0.100000	0.005432	-0.000570
0.110000	0.005453	-0.000112
0.120000	0.005168	-0.000183
0.130000	0.005676	-0.000041
0.140000	0.004944	0.000214
0.150000	0.004781	0.000264
0.160000	0.005280	0.000244
0.170000	0.004832	0.000254
0.180000	0.005371	0.000214
0.190000	0.005381	-0.000112
0.200000	0.004761	0.000183
0.210000	0.006114	-0.000275
0.220000	0.004791	-0.000153
0.230000	0.005157	0.000183
0.240000	0.005615	-0.000153
0.250000	0.005035	-0.000183
0.260000	0.004740	-0.000224
0.270000	0.005127	-0.000854
0.280000	0.005625	0.000254
0.290000	0.005341	-0.000234
0.300000	0.005564	-0.000031
0.310000	0.005391	0.000041
0.320000	0.005249	0.000315
0.330000	0.005096	0.000397
0.340000	0.005391	0.000122
0.350000	0.004537	-0.000234
0.360000	0.004964	0.000458
0.370000	0.004812	-0.000031
0.380000	0.005188	-0.000071
0.390000	0.004893	-0.000346
0.400000	0.005076	0.000193
0.410000	0.004934	0.000061
0.420000	0.005666	0.000183
0.430000	0.005473	0.000102
0.440000	0.005046	0.000549
0.450000	0.004791	-0.000081
0.460000	0.005066	0.000031
0.470000	0.005157	-0.000224
0.480000	0.005056	0.000183
0.490000	0.005046	-0.000122
0.500000	0.004730	-0.000051
0.510000	0.005066	-0.000031
0.520000	0.005290	-0.000000
0.530000	0.005493	0.000031
0.540000	0.005219	-0.000275
0.550000	0.005371	-0.000051
0.560000	0.004883	0.000051
0.570000	0.004791	-0.000458
0.580000	0.004557	0.000488
0.590000	0.005056	-0.000010
0.600000	0.005422	0.000214
0.610000	0.004395	0.000112
0.620000	0.005025	-0.000397
0.630000	0.005107	-0.000173
0.640000	0.004425	-0.000244
0.650000	0.004893	-0.000509
0.660000	0.005005	-0.000264
0.670000	0.005717	0.000509
0.680000	0.005320	0.000031
0.690000	0.004842	0.000203
0.700000	0.005809	-0.000570
0.710000	0.005554	0.000366
0.720000	0.005219	-0.000153
0.730000	0.004588	-0.000346
0.740000	0.004893	0.000102
0.750000	0.004924	-0.000132
0.760000	0.005198	0.000122
0.770000	0.005066	0.000295
0.780000	0.004995	-0.000092
0.790000	0.005046	0.000346
0.800000	0.005391	0.000122
0.810000	0.004334	0.000264
0.820000	0.004964	-0.000234
0.830000	0.005188	-0.000203
0.840000	0.004964	-0.000102
0.850000	0.004690	0.000264
0.860000	0.004547	-0.000285
0.870000	0.004934	-0.000142
0.880000	0.005412	-0.000346
0.890000	0.005168	-0.000529
0.900000	0.005219	0.000122
0.910000	0.005066	0.000010
0.920000	0.004974	-0.000387
0.930000	0.004791	-0.000478
0.940000	0.005402	-0.000275
0.950000	0.005554	-0.000285
0.960000	0.005585	0.000163
0.970000	0.004954	0.000031
0.980000	0.005046	-0.000142
0.990000	0.004547	-0.000366
1.000000	0.005157	0.000346
1.010000	0.005269	-0.000000
1.020000	0.004822	0.000071
1.030000	0.004761	0.000041
1.040000	0.005432	-0.000549
1.050000	0.005259	-0.000031
1.060000	0.004578	-0.000010
1.070000	0.004934	0.000010
1.080000	0.004801	-0.000071
1.090000	0.004598	-0.000183
1.100000	0.005351	-0.000081
1.110000	0.004608	0.000092
1.120000	0.005391	-0.000203
1.130000	0.005076	0.000376
1.140000	0.005127	0.000071
1.150000	0.005686	-0.000488
1.160000	0.004954	-0.000193
1.170000	0.005157	0.000305
1.180000	0.005483	0.000326
1.190000	0.004822	-0.000417
1.200000	0.005788	0.000112
1.210000	0.005107	0.000081
1.220000	0.005707	-0.000224
1.230000	0.005859	0.000305
1.240000	0.005473	0.000203
1.250000	0.005961	0.000081
1.260000	0.005920	-0.000010
1.270000	0.005697	0.000203
1.280000	0.006043	0.000102
1.290000	0.005503	-0.000010
1.300000	0.005849	0.000580
1.310000	0.006063	0.000295
1.320000	0.005870	0.000112
1.330000	0.005666	-0.000621
1.340000	0.007090	0.000244
1.350000	0.005992	-0.000366
1.360000	0.006327	0.000580
1.370000	0.006195	0.000621
1.380000	0.006276	0.000519
1.390000	0.006816	0.000397
1.400000	0.006460	0.000631
1.410000	0.006032	0.000498
1.420000	0.007243	0.000387
1.430000	0.008535	0.000814
1.440000	0.009796	0.000682
1.450000	0.012726	0.001353
1.460000	0.015249	0.001862
1.470000	0.018473	0.002726
1.480000	0.021027	0.003459
1.490000	0.021067	0.004293
1.500000	0.018321	0.004354
1.510000	0.013173	0.003316
1.520000	0.005870	0.001160
1.530000	0.003652	-0.001729
1.540000	0.005737	-0.002228
1.550000	0.009633	-0.000885
1.560000	0.011108	0.002391
1.570000	0.007782	0.002065
1.580000	-0.001322	0.000651
1.590000	-0.012400	-0.001160
1.600000	-0.022542	-0.002472
1.610000	-0.031596	-0.006805
1.620000	-0.035390	-0.009847
1.630000	-0.034577	-0.012339
1.640000	-0.029704	-0.011821
1.650000	-0.021932	-0.009166
1.660000	-0.013316	-0.005503
1.670000	-0.007772	-0.002411
1.680000	-0.002604	-0.000081
1.690000	0.000326	0.000580
1.700000	0.002848	0.000437
1.710000	0.004456	0.000488
1.720000	0.006032	-0.000539
1.730000	0.007904	-0.000692
1.740000	0.009644	-0.001740
1.750000	0.010712	-0.002177
1.760000	0.011251	-0.002197
1.770000	0.012034	-0.002309
1.780000	0.012044	-0.002004
1.790000	0.010976	-0.001211
1.800000	0.011729	-0.000478
1.810000	0.011454	-0.000529
1.820000	0.010396	0.000987
1.830000	0.010997	0.001546
1.840000	0.009939	0.003082
1.850000	0.009227	0.003347
1.860000	0.009562	0.003896
1.870000	0.009145	0.003469
1.880000	0.008840	0.004161
1.890000	0.009349	0.003408
1.900000	0.009338	0.003815
1.910000	0.010112	0.002909
1.920000	0.010966	0.002482
1.930000	0.010793	0.002106
1.940000	0.011322	0.000509
1.950000	0.011749	-0.000132
1.960000	0.012299	-0.000905
1.970000	0.012177	-0.000885
1.980000	0.012065	-0.000488
1.990000	0.011424	-0.001058
2.000000	0.011342	-0.001139
2.010000	0.011292	-0.000203
2.020000	0.009898	-0.000356
2.030000	0.008982	0.000854
2.040000	0.008067	0.000997
2.050000	0.007609	0.002411
2.060000	0.007731	0.002533
2.070000	0.006734	0.002513
2.080000	0.005992	0.002950
2.090000	0.005981	0.003357
2.100000	0.006205	0.002136
2.110000	0.007172	0.001973
2.120000	0.006643	0.001526
2.130000	0.007965	0.000743
2.140000	0.007975	0.000244
2.150000	0.009104	0.000488
2.160000	0.009165	-0.000417
2.170000	0.008728	-0.000366
2.180000	0.008728	-0.000946
2.190000	0.008321	-0.001231
2.200000	0.008026	-0.001068
2.210000	0.007670	-0.000722
2.220000	0.007131	-0.000336
2.230000	0.006317	-0.000387
2.240000	0.006500	0.000295
2.250000	0.005412	0.000488
2.260000	0.004761	0.001017
2.270000	0.004456	0.001150
2.280000	0.004720	0.001007
2.290000	0.004313	0.001200
2.300000	0.004598	0.001302
2.310000	0.004161	0.000712
2.320000	0.005035	0.001343
2.330000	0.005147	0.000509
2.340000	0.005453	0.000102
2.350000	0.005330	-0.000122
2.360000	0.006297	-0.000753
2.370000	0.006043	-0.001109
2.380000	0.006327	-0.001231
2.390000	0.006073	-0.001251
2.400000	0.006154	-0.000895
2.410000	0.006022	-0.000966
2.420000	0.005656	-0.000519
2.430000	0.005483	-0.000519
2.440000	0.005381	-0.000142
2.450000	0.004567	0.000173
2.460000	0.004110	0.000142
2.470000	0.003510	0.000244
2.480000	0.002970	0.000305
2.490000	0.003042	-0.000193
2.500000	0.003092	0.000275
2.510000	0.003489	0.000264
2.520000	0.003794	0.000041
2.530000	0.003662	0.000458
2.540000	0.003601	0.000326
2.550000	0.004079	-0.000427
2.560000	0.004130	-0.000529
2.570000	0.004435	-0.000671
2.580000	0.004649	-0.000671
2.590000	0.005056	-0.000885
2.600000	0.005117	-0.000509
2.610000	0.004181	-0.000854
2.620000	0.004751	-0.000692
2.630000	0.004822	-0.000437
2.640000	0.004690	-0.000437
2.650000	0.004405	-0.000448
2.660000	0.003845	-0.000580
2.670000	0.003367	-0.000122
2.680000	0.003428	-0.000193
2.690000	0.003133	0.000153
2.700000	0.003174	0.000020
2.710000	0.003082	0.000183
2.720000	0.003489	-0.000081
2.730000	0.003204	-0.000305
2.740000	0.003123	-0.000264
2.750000	0.003937	-0.000671
2.760000	0.003815	-0.001322
2.770000	0.003408	-0.000824
2.780000	0.004567	-0.000834
2.790000	0.003489	-0.001160
2.800000	0.004659	-0.000804
2.810000	0.004415	-0.000600
2.820000	0.005005	-0.000092
2.830000	0.003998	-0.000519
2.840000	0.003947	-0.000610
2.850000	0.004598	-0.000132
2.860000	0.003764	-0.000112
2.870000	0.004283	-0.000122
2.880000	0.004161	0.000458
2.890000	0.004120	-0.000031
2.900000	0.004364	0.000275
2.910000	0.004283	0.000193
2.920000	0.004242	0.000214
2.930000	0.004201	-0.000285
2.940000	0.004079	-0.000417
2.950000	0.004364	-0.000203
2.960000	0.004374	-0.001150
2.970000	0.004028	-0.000865
2.980000	0.004466	-0.000509
2.990000	0.004801	-0.000824
3.000000	0.005330	-0.000397
3.010000	0.005229	-0.000916
3.020000	0.004791	-0.000702
3.030000	0.004822	-0.000122
3.040000	0.004842	-0.000722
3.050000	0.004873	-0.000264
3.060000	0.004466	-0.000061
3.070000	0.005107	-0.000092
3.080000	0.004313	0.000844
3.090000	0.004598	0.000905
3.100000	0.004395	0.000671
3.110000	0.004293	0.000326
3.120000	0.005117	-0.000102
3.130000	0.004862	-0.000031
3.140000	0.005442	-0.000498
3.150000	0.005524	-0.000397
3.160000	0.004679	-0.000000
3.170000	0.005676	-0.000366
3.180000	0.005381	0.000020
3.190000	0.005168	-0.000254
3.200000	0.004730	-0.000071
3.210000	0.005127	-0.000559
3.220000	0.004852	-0.000285
3.230000	0.005229	0.000336
3.240000	0.005035	-0.000305
3.250000	0.004974	0.000020
3.260000	0.004669	0.000112
3.270000	0.005046	0.000020
3.280000	0.004659	-0.000031
3.290000	0.004842	0.000092
3.300000	0.005290	0.000285
3.310000	0.005320	0.000142
3.320000	0.004761	0.000112
3.330000	0.004629	0.000865
3.340000	0.005249	-0.000020
3.350000	0.005483	-0.000488
3.360000	0.006053	-0.000183
3.370000	0.005585	-0.000000
3.380000	0.005463	-0.000092
3.390000	0.005249	-0.000509
3.400000	0.004883	-0.000498
3.410000	0.005168	-0.000295
3.420000	0.005076	-0.000142
3.430000	0.004903	0.000061
3.440000	0.004690	0.000397
3.450000	0.004903	0.000478
3.460000	0.005005	0.000549
3.470000	0.005096	-0.000153
3.480000	0.004395	0.000122
3.490000	0.004720	0.000417
3.500000	0.004110	0.000285
3.510000	0.005137	0.000732
3.520000	0.005554	0.000264
3.530000	0.004873	0.000173
3.540000	0.005758	0.000142
3.550000	0.005961	0.000081
3.560000	0.006124	0.000631
3.570000	0.005280	-0.000193
3.580000	0.006134	0.000020
3.590000	0.005524	0.000061
3.600000	0.005971	0.000102
3.610000	0.005727	-0.000203
3.620000	0.004985	0.000285
3.630000	0.005096	0.000224
3.640000	0.004740	0.000132
3.650000	0.005483	0.000285
3.660000	0.004608	-0.000142
3.670000	0.004669	0.000092
3.680000	0.004567	0.000244
3.690000	0.004588	0.000254
3.700000	0.005015	0.000356
3.710000	0.004954	0.000254
3.720000	0.004954	0.000132
3.730000	0.004964	-0.000478
3.740000	0.004974	-0.000254
3.750000	0.005473	0.000224
3.760000	0.005096	-0.000132
3.770000	0.005330	0.000041
3.780000	0.005768	-0.000631
3.790000	0.005920	-0.000692
3.800000	0.005320	-0.000366
3.810000	0.005341	-0.000295
3.820000	0.005056	0.000031
3.830000	0.005483	0.000071
3.840000	0.005595	0.000336
3.850000	0.005096	0.000346
3.860000	0.004578	-0.000366
3.870000	0.004964	0.000295
3.880000	0.004445	0.000356
3.890000	0.004771	-0.000224
3.900000	0.005046	0.000682
3.910000	0.005005	0.000793
3.920000	0.005005	-0.000295
3.930000	0.004883	-0.000142
3.940000	0.005147	-0.000193
3.950000	0.005341	-0.000010
3.960000	0.005483	-0.000153
3.970000	0.005269	-0.000142
3.980000	0.004852	-0.000417
3.990000	0.005147	-0.000346
4.000000	0.005503	-0.000112
4.010000	0.005229	-0.000234
4.020000	0.005269	-0.001088
4.030000	0.004974	-0.000743
4.040000	0.005005	0.000203
4.050000	0.004181	0.000376
4.060000	0.005300	-0.000132
4.070000	0.004588	0.000142
4.080000	0.004639	-0.000163
4.090000	0.004761	-0.000183
4.100000	0.005157	0.000051
4.110000	0.005046	0.000285
4.120000	0.004934	0.000346
4.130000	0.005025	-0.000051
4.140000	0.005686	-0.000031
4.150000	0.004669	0.000081
4.160000	0.005381	0.000275
4.170000	0.005219	-0.000407
4.180000	0.005758	-0.000336
4.190000	0.005178	-0.000224
4.200000	0.005320	0.000264
4.210000	0.005300	-0.000722
4.220000	0.004944	-0.000539
4.230000	0.005646	0.000366
4.240000	0.005615	0.000061
4.250000	0.005147	-0.000132
4.260000	0.005269	0.000102
4.270000	0.005035	0.000102
4.280000	0.004771	0.000275
4.290000	0.005147	0.000254
4.300000	0.005595	0.000132
4.310000	0.004608	0.000376
4.320000	0.005137	0.000244
4.330000	0.005158	0.000142
4.340000	0.005330	0.000437
4.350000	0.005432	0.000407
4.360000	0.005514	-0.000407
4.370000	0.005870	-0.000203
4.380000	0.005748	-0.000519
4.390000	0.005605	-0.000071
4.400000	0.005453	-0.000010
4.410000	0.005839	0.000041
4.420000	0.005330	-0.000010
4.430000	0.005422	-0.000183
4.440000	0.004903	0.000234
4.450000	0.005005	0.000031
4.460000	0.004934	0.000275
4.470000	0.005168	-0.000254
4.480000	0.005107	0.000010
4.490000	0.005168	0.000427
4.500000	0.005544	-0.000295
4.510000	0.005656	0.000732
4.520000	0.005524	-0.000122
4.530000	0.004995	-0.000234
4.540000	0.005605	0.000193
4.550000	0.004791	-0.000458
4.560000	0.005483	-0.000387
4.570000	0.005564	-0.000010
4.580000	0.005697	-0.000031
4.590000	0.004964	-0.000224
4.600000	0.004700	-0.000183
4.610000	0.005727	0.000122
4.620000	0.005351	-0.000142
4.630000	0.005544	-0.000173
4.640000	0.005391	-0.000132
4.650000	0.005208	0.000387
4.660000	0.005259	-0.000081
4.670000	0.005229	0.000061
4.680000	0.004985	-0.000183
4.690000	0.005809	0.000163
4.700000	0.004781	0.000061
4.710000	0.005280	-0.000498
4.720000	0.005473	-0.000203
4.730000	0.004649	-0.000122
4.740000	0.005198	0.000153
4.750000	0.005259	-0.000387
4.760000	0.005381	-0.000336
4.770000	0.005514	-0.000356
4.780000	0.005666	-0.000590
4.790000	0.005900	-0.000061
4.800000	0.005676	-0.000326
4.810000	0.005239	-0.000092
4.820000	0.005137	-0.000041
4.830000	0.005219	0.000020
4.840000	0.004985	-0.000132
4.850000	0.005636	-0.000264
4.860000	0.005035	0.000081
4.870000	0.005605	0.000234
4.880000	0.004842	0.000326
4.890000	0.005564	0.000071
4.900000	0.005198	0.000244
4.910000	0.005076	0.000061
4.920000	0.005819	-0.000132
4.930000	0.005514	-0.000081
4.940000	0.005605	0.000061
4.950000	0.005259	0.000061
4.960000	0.004669	0.000326
4.970000	0.006053	0.000224
4.980000	0.006022	0.000366
4.990000	0.005534	0.000041
5.000000	0.005330	0.000183
5.010000	0.005615	-0.000224
5.020000	0.005503	0.000020
5.030000	0.005412	-0.000153
5.040000	0.005046	0.000214
5.050000	0.004944	0.000031
5.060000	0.005066	-0.000397
5.070000	0.005137	0.000142
5.080000	0.004873	-0.000437
5.090000	0.005666	-0.000020
5.100000	0.004812	0.000132
5.110000	0.004964	-0.000020
5.120000	0.004740	0.000478
5.130000	0.005259	0.000305
5.140000	0.005168	0.000071
5.150000	0.005798	-0.000264
5.160000	0.005269	-0.000407
5.170000	0.005330	-0.000071
5.180000	0.005422	-0.000183
5.190000	0.005788	0.000621
5.200000	0.005493	-0.000529
5.210000	0.005269	-0.000071
5.220000	0.005229	-0.000468
5.230000	0.005391	-0.000081
5.240000	0.005310	0.000020
5.250000	0.005473	0.000112
5.260000	0.005269	0.000071
5.270000	0.005361	-0.000448
5.280000	0.005534	0.000061
5.290000	0.005076	0.000275
5.300000	0.005473	0.000193
5.310000	0.005066	0.000580
5.320000	0.005168	0.000224
5.330000	0.005391	-0.000285
5.340000	0.005432	-0.000387
5.350000	0.005768	-0.000173
5.360000	0.005941	-0.000061
5.370000	0.005422	0.000102
5.380000	0.005727	-0.000122
5.390000	0.005351	-0.000468
5.400000	0.005727	0.000071
5.410000	0.005127	0.000092
5.420000	0.005198	-0.000356
5.430000	0.005625	-0.000183
5.440000	0.005900	0.000071
5.450000	0.005402	-0.000183
5.460000	0.005259	-0.000112
5.470000	0.005483	-0.000122
5.480000	0.005310	0.000183
5.490000	0.005330	0.000336
5.500000	0.004730	0.000366
5.510000	0.005147	0.000244
5.520000	0.005086	0.000254
5.530000	0.005422	-0.000183
5.540000	0.004944	-0.000366
5.550000	0.005229	0.000437
5.560000	0.005544	0.000173
5.570000	0.005809	-0.000326
5.580000	0.005320	-0.000315
5.590000	0.005463	-0.000254
5.600000	0.005158	-0.000387
5.610000	0.005402	-0.000315
5.620000	0.005341	-0.000641
5.630000	0.005066	-0.000346
5.640000	0.005514	0.000295
5.650000	0.004700	0.000244
5.660000	0.005361	-0.000020
5.670000	0.005137	-0.000692
5.680000	0.004791	-0.000295
5.690000	0.004954	-0.000427
5.700000	0.004567	-0.000122
5.710000	0.005076	0.000214
5.720000	0.004537	0.000163
5.730000	0.004862	0.000051
5.740000	0.005615	-0.000102
5.750000	0.005157	0.000163
5.760000	0.005514	-0.000671
5.770000	0.005239	-0.000193
5.780000	0.005595	-0.000071
5.790000	0.005534	-0.000112
5.800000	0.004822	0.000081
5.810000	0.005117	-0.000264
5.820000	0.005269	-0.000437
5.830000	0.005625	0.000376
5.840000	0.005768	0.000407
5.850000	0.005015	0.000397
5.860000	0.005178	0.000061
5.870000	0.005066	0.000305
5.880000	0.005290	-0.000071
5.890000	0.005290	-0.000407
5.900000	0.005229	0.000244
5.910000	0.004852	0.000010
5.920000	0.005147	0.000061
5.930000	0.005341	-0.000071
5.940000	0.005198	-0.000356
5.950000	0.005229	-0.000112
5.960000	0.005524	0.000458
5.970000	0.005473	-0.000376
5.980000	0.005035	-0.000071
5.990000	0.005330	0.000010
6.000000	0.005544	-0.000264
6.010000	0.005778	0.000437
6.020000	0.005514	-0.000102
6.030000	0.005361	0.000183
6.040000	0.005371	0.000397
6.050000	0.005117	0.000397
6.060000	0.005168	-0.000285
6.070000	0.004985	0.000824
6.080000	0.005483	-0.000295
6.090000	0.005748	-0.000275
6.100000	0.005025	0.000173
6.110000	0.005432	-0.000010
6.120000	0.005483	-0.000041
6.130000	0.004618	-0.000926
6.140000	0.005361	-0.000275
6.150000	0.004720	-0.000285
6.160000	0.004842	-0.000346
6.170000	0.005117	-0.000214
6.180000	0.005076	-0.000010
6.190000	0.004537	-0.000275
6.200000	0.004740	0.000173
6.210000	0.005157	0.000010
6.220000	0.005086	0.000234
6.230000	0.005585	0.000071
6.240000	0.004557	-0.000132
6.250000	0.005086	-0.000153
6.260000	0.005015	-0.000163
6.270000	0.005147	0.000173
6.280000	0.005534	-0.000163
6.290000	0.005269	0.000031
6.300000	0.005381	0.000000
6.310000	0.005473	-0.000214
6.320000	0.005005	-0.000153
6.330000	0.004710	-0.000234
6.340000	0.005178	0.000244
6.350000	0.005320	0.000071
6.360000	0.005381	0.000051
6.370000	0.005442	-0.000183
6.380000	0.005422	-0.000173
6.390000	0.005147	-0.000814
6.400000	0.004873	-0.000488
6.410000	0.004608	-0.000275
6.420000	0.004669	-0.000519
6.430000	0.005646	-0.000275
6.440000	0.005361	0.000051
6.450000	0.005249	0.000020
6.460000	0.005208	0.000000
6.470000	0.005656	-0.000163
6.480000	0.005137	0.000122
6.490000	0.005269	-0.000163
6.500000	0.005666	-0.000081
6.510000	0.006022	0.000315
6.520000	0.005697	0.000163
6.530000	0.005259	0.000295
6.540000	0.005473	-0.000092
6.550000	0.005503	-0.000468
6.560000	0.005015	-0.000020
6.570000	0.005229	-0.000275
6.580000	0.005249	0.000244
6.590000	0.005280	-0.000092
6.600000	0.005514	0.000315
6.610000	0.005239	0.000081
6.620000	0.005534	-0.000417
6.630000	0.005147	-0.000214
6.640000	0.004791	0.000295
6.650000	0.005229	0.000264
6.660000	0.005463	0.000163
6.670000	0.005249	0.000173
6.680000	0.005402	0.000305
6.690000	0.004862	0.000102
6.700000	0.005096	0.000112
6.710000	0.004995	-0.000010
6.720000	0.005707	-0.000305
6.730000	0.005219	-0.000295
6.740000	0.005727	-0.000224
6.750000	0.005341	-0.000000
6.760000	0.005737	0.000010
6.770000	0.004862	0.000122
6.780000	0.005025	-0.000651
6.790000	0.005595	0.000559
6.800000	0.005615	-0.000183
6.810000	0.005432	-0.000153
6.820000	0.004903	-0.000326
6.830000	0.005351	-0.000122
6.840000	0.005351	0.000020
6.850000	0.005046	0.000376
6.860000	0.004995	0.000315
6.870000	0.005086	0.000102
6.880000	0.005361	-0.000275
6.890000	0.005096	0.000570
6.900000	0.005025	-0.000061
6.910000	0.005219	0.000193
6.920000	0.005432	0.000092
6.930000	0.005412	0.000254
6.940000	0.005493	-0.000061
6.950000	0.005707	-0.000641
6.960000	0.004995	0.000092
6.970000	0.004995	-0.000020
6.980000	0.005524	-0.000346
6.990000	0.004964	0.000142
7.000000	0.005575	0.000031
7.010000	0.005595	-0.000010
7.020000	0.005697	0.000092
7.030000	0.005056	-0.000203
7.040000	0.005524	-0.000610
7.050000	0.005025	-0.000224
7.060000	0.005371	0.000081
7.070000	0.005117	0.000437
7.080000	0.005168	0.000010
7.090000	0.004995	0.000244
7.100000	0.005412	-0.000010
7.110000	0.005402	-0.000376
7.120000	0.005280	-0.000102
7.130000	0.005239	-0.000081
7.140000	0.005585	-0.000000
7.150000	0.005656	0.000224
7.160000	0.005880	-0.000010
7.170000	0.005636	0.000142
7.180000	0.005727	-0.000173
7.190000	0.005432	-0.000041
7.200000	0.005595	0.000020
7.210000	0.005625	-0.000142
7.220000	0.005453	-0.000092
7.230000	0.005859	-0.000122
7.240000	0.005809	-0.000061
7.250000	0.004913	0.000580
7.260000	0.005605	0.000244
7.270000	0.004537	0.000610
7.280000	0.005269	0.000173
7.290000	0.005636	0.000000
7.300000	0.005564	-0.000315
7.310000	0.005503	0.000305
7.320000	0.005473	-0.000590
7.330000	0.005666	-0.000305
7.340000	0.005849	-0.000600
7.350000	0.005707	-0.000010
7.360000	0.005219	-0.000102
7.370000	0.005727	-0.000020
7.380000	0.005788	-0.000122
7.390000	0.005971	-0.000336
7.400000	0.005280	-0.000214
7.410000	0.005056	-0.000346
7.420000	0.005412	-0.000275
7.430000	0.004944	0.000112
7.440000	0.005473	-0.000173
7.450000	0.005534	0.000509
7.460000	0.005625	-0.000122
7.470000	0.004954	0.000122
7.480000	0.005035	0.000244
7.490000	0.005269	0.000427
7.500000	0.005219	0.000478
7.510000	0.005381	-0.000336
7.520000	0.005514	0.000224
7.530000	0.005361	0.000092
7.540000	0.005290	0.000203
7.550000	0.005625	-0.000041
7.560000	0.005473	0.000153
7.570000	0.005473	-0.000112
7.580000	0.005697	-0.000224
7.590000	0.005351	-0.000142
7.600000	0.005391	-0.000112
7.610000	0.005402	-0.000132
7.620000	0.005666	0.000132
7.630000	0.005524	0.000814
7.640000	0.005514	-0.000234
7.650000	0.005147	0.000183
7.660000	0.005412	0.000387
7.670000	0.004496	0.000020
7.680000	0.005147	-0.000020
7.690000	0.004985	-0.000010
7.700000	0.005483	0.000498
7.710000	0.005585	-0.000376
7.720000	0.005748	0.000132
7.730000	0.005534	-0.000356
7.740000	0.005890	0.000163
7.750000	0.005920	-0.000102
7.760000	0.005595	-0.000519
7.770000	0.005758	-0.000224
7.780000	0.005127	-0.000376
7.790000	0.005117	0.000163
7.800000	0.005534	0.000193
7.810000	0.005219	0.000366
7.820000	0.004964	0.000254
7.830000	0.004924	0.000010
7.840000	0.004567	-0.000153
7.850000	0.005737	-0.000112
7.860000	0.005636	0.000214
7.870000	0.005269	-0.000407
7.880000	0.004832	0.000071
7.890000	0.005422	0.000295
7.900000	0.005636	0.000010
7.910000	0.005391	-0.000041
7.920000	0.005564	0.000092
7.930000	0.005259	0.000275
7.940000	0.005625	0.000214
7.950000	0.005127	0.000254
7.960000	0.005168	-0.000315
7.970000	0.005229	-0.000112
7.980000	0.005737	-0.000285
7.990000	0.005269	0.000295
8.000000	0.005544	0.000031
8.010000	0.005402	-0.000529
8.020000	0.004700	0.000112
8.030000	0.005412	0.000081
8.040000	0.005300	0.000193
8.050000	0.005239	0.000020
8.060000	0.005585	0.000163
8.070000	0.005595	0.000509
8.080000	0.005595	0.000448
8.090000	0.005219	-0.000010
8.100000	0.006022	-0.000234
8.110000	0.005707	-0.000519
8.120000	0.005015	0.000275
8.130000	0.005371	-0.000041
8.140000	0.005910	0.000163
8.150000	0.005310	-0.000122
8.160000	0.005147	0.000387
8.170000	0.005127	0.000020
8.180000	0.005157	-0.000071
8.190000	0.005758	-0.000234
8.200000	0.005748	-0.000448
8.210000	0.004924	-0.000010
8.220000	0.005107	0.000081
8.230000	0.005778	0.000387
8.240000	0.005483	-0.000061
8.250000	0.005778	0.000122
8.260000	0.005890	-0.000041
8.270000	0.006022	0.000092
8.280000	0.005493	-0.000071
8.290000	0.005351	-0.000275
8.300000	0.005341	0.000020
8.310000	0.005249	-0.000244
8.320000	0.005188	-0.000366
8.330000	0.005666	-0.000112
8.340000	0.005656	-0.000214
8.350000	0.005015	-0.000203
8.360000	0.005229	0.000051
8.370000	0.005748	0.000132
8.380000	0.005310	0.000010
8.390000	0.005188	-0.000275
8.400000	0.005473	0.000295
8.410000	0.005249	0.000183
8.420000	0.005554	0.000071
8.430000	0.005249	0.000102
8.440000	0.005849	-0.000163
8.450000	0.004710	-0.000092
8.460000	0.005636	0.000529
8.470000	0.005330	0.000112
8.480000	0.005056	0.000173
8.490000	0.005330	-0.000549
8.500000	0.005290	-0.000234
8.510000	0.005554	-0.000041
8.520000	0.005249	-0.000336
8.530000	0.005249	0.000275
8.540000	0.005452	0.000559
8.550000	0.005086	-0.000610
8.560000	0.005178	-0.000010
8.570000	0.005422	-0.000600
8.580000	0.005381	0.000092
8.590000	0.006002	0.000600
8.600000	0.005636	-0.000000
8.610000	0.005839	0.000092
8.620000	0.005686	0.000437
8.630000	0.004822	0.000122
8.640000	0.005442	0.000081
8.650000	0.005748	0.000193
8.660000	0.005595	-0.000183
8.670000	0.005575	-0.000417
8.680000	0.005147	-0.000153
8.690000	0.005452	0.000163
8.700000	0.005391	0.000153
8.710000	0.005727	-0.000336
8.720000	0.005686	0.000163
8.730000	0.005849	0.000448
8.740000	0.005798	0.000081
8.750000	0.005005	0.000539
8.760000	0.005554	-0.000051
8.770000	0.005341	0.000142
8.780000	0.005931	0.000071
8.790000	0.005300	-0.000153
8.800000	0.005717	0.000214
8.810000	0.005524	0.000010
8.820000	0.006144	-0.000183
8.830000	0.005575	-0.000163
8.840000	0.005127	-0.000264
8.850000	0.005503	-0.000153
8.860000	0.005442	-0.000285
8.870000	0.005717	0.000254
8.880000	0.005717	-0.000254
8.890000	0.005330	-0.000478
8.900000	0.004445	0.000305
8.910000	0.005605	-0.000112
8.920000	0.005188	0.000376
8.930000	0.005534	-0.000193
8.940000	0.005727	0.000275
8.950000	0.006022	-0.000031
8.960000	0.005483	0.000224
8.970000	0.005717	0.000163
8.980000	0.005880	0.000326
8.990000	0.005076	0.000173
9.000000	0.005147	0.000031
9.010000	0.005880	0.000427
9.020000	0.005575	0.000326
9.030000	0.005280	-0.000081
9.040000	0.005086	0.000804
9.050000	0.005524	-0.000173
9.060000	0.005564	0.000275
9.070000	0.005219	-0.000000
9.080000	0.004995	0.000142
9.090000	0.005880	0.000203
9.100000	0.005910	0.000081
9.110000	0.005798	0.000865
9.120000	0.005534	0.000234
9.130000	0.005788	-0.000254
9.140000	0.005636	0.000203
9.150000	0.005676	-0.000285
9.160000	0.005920	-0.000041
9.170000	0.005829	0.000254
9.180000	0.005503	-0.000132
9.190000	0.005412	-0.000112
9.200000	0.005646	0.000173
9.210000	0.005859	0.000031
9.220000	0.005788	0.000549
9.230000	0.005564	-0.000153
9.240000	0.005910	0.000142
9.250000	0.005564	0.000163
9.260000	0.005768	0.000417
9.270000	0.005961	-0.000295
9.280000	0.005239	0.000010
9.290000	0.006388	0.000214
9.300000	0.005646	0.000315
9.310000	0.005381	0.000132
9.320000	0.005707	0.000163
9.330000	0.005280	0.000081
9.340000	0.005493	-0.000051
9.350000	0.004913	-0.000336
9.360000	0.005096	0.000214
9.370000	0.005534	-0.000234
9.380000	0.005249	-0.000295
9.390000	0.005615	-0.000102
9.400000	0.005107	0.000183
9.410000	0.005351	-0.000346
9.420000	0.005219	-0.000203
9.430000	0.005035	0.000051
9.440000	0.004893	-0.000427
9.450000	0.004700	-0.000712
9.460000	0.005544	0.000264
9.470000	0.005554	-0.000478
9.480000	0.005310	-0.000397
9.490000	0.005422	0.000285
9.500000	0.005412	0.000092
9.510000	0.005280	0.000163
9.520000	0.005615	0.000183
9.530000	0.005096	-0.000448
9.540000	0.005900	-0.000376
9.550000	0.005768	-0.000102
9.560000	0.005849	0.000142
9.570000	0.005697	-0.000020
9.580000	0.005666	-0.000570
9.590000	0.005758	-0.000112
9.600000	0.005483	-0.000254
9.610000	0.005859	0.000010
9.620000	0.005371	0.000061
9.630000	0.005514	0.000254
9.640000	0.005117	-0.000020
9.650000	0.005503	0.000112
9.660000	0.005483	0.000102
9.670000	0.005371	-0.000142
9.680000	0.005310	0.000285
9.690000	0.005300	0.000122
9.700000	0.005300	0.000193
9.710000	0.005269	0.000214
9.720000	0.005371	0.000214
9.730000	0.005605	0.000142
9.740000	0.005524	0.000163
9.750000	0.005249	0.000000
9.760000	0.005524	-0.000122
9.770000	0.005351	-0.000397
9.780000	0.005330	-0.000285
9.790000	0.005463	-0.000041
9.800000	0.005422	-0.000224
9.810000	0.005493	-0.000224
9.820000	0.005015	-0.000183
9.830000	0.005391	-0.000244
9.840000	0.005219	0.000305
9.850000	0.005208	-0.000102
9.860000	0.005381	0.000061
9.870000	0.005554	-0.000305
9.880000	0.005564	-0.000224
9.890000	0.005575	-0.000183
9.900000	0.005219	-0.000417
9.910000	0.005137	-0.000285
9.920000	0.005737	-0.000264
9.930000	0.005819	-0.000326
9.940000	0.005870	-0.000346
9.950000	0.005717	0.000285
9.960000	0.005483	-0.000051
9.970000	0.005798	0.000132
9.980000	0.004557	0.000631
9.990000	0.004852	0.000081
10.000000	0.005371	-0.000285
