UBB Dec12 1748 Average.d24 - THz Start: 187.69 mm, 1000 points, 10 fs - Pump Probe Time: 0.55 ps, Pump Motor Position: 95.3700 mm, 46 points, -50 fs - Wait: 400 ms -  Averages: 1 - Lock-In 1: 500 mV/mA, 100 ms - Lock-In 2: 500 mV/mA, 100 ms
0.010000	0.004405	-0.000051
0.020000	0.004608	-0.000295
0.030000	0.004252	-0.000183
0.040000	0.004374	-0.000193
0.050000	0.004059	-0.000092
0.060000	0.004425	-0.000478
0.070000	0.004120	0.000000
0.080000	0.004954	-0.000427
0.090000	0.004079	0.000580
0.100000	0.004364	0.000214
0.110000	0.004639	-0.000417
0.120000	0.004720	-0.000376
0.130000	0.004344	-0.000244
0.140000	0.004354	-0.000214
0.150000	0.004639	-0.000509
0.160000	0.004415	0.000366
0.170000	0.003998	-0.000183
0.180000	0.003449	-0.000397
0.190000	0.004476	0.000071
0.200000	0.003937	0.000020
0.210000	0.004222	0.000621
0.220000	0.004079	-0.000275
0.230000	0.004405	0.000193
0.240000	0.005066	-0.000448
0.250000	0.004018	-0.000173
0.260000	0.004964	0.000417
0.270000	0.004517	0.000275
0.280000	0.003764	-0.000295
0.290000	0.004608	0.000020
0.300000	0.004567	-0.000112
0.310000	0.003774	-0.000163
0.320000	0.004598	0.000346
0.330000	0.004181	0.000509
0.340000	0.004018	0.000081
0.350000	0.004028	-0.000427
0.360000	0.004425	-0.000275
0.370000	0.004222	0.000315
0.380000	0.004405	0.000193
0.390000	0.004924	0.000397
0.400000	0.004018	0.000173
0.410000	0.004435	-0.000112
0.420000	0.003672	-0.000122
0.430000	0.004008	-0.000437
0.440000	0.003286	-0.000326
0.450000	0.003998	0.000610
0.460000	0.004069	-0.000081
0.470000	0.004354	0.000387
0.480000	0.004598	0.000031
0.490000	0.003398	0.000183
0.500000	0.004181	-0.000437
0.510000	0.003550	0.000193
0.520000	0.004405	-0.000244
0.530000	0.004079	-0.000346
0.540000	0.003489	-0.000071
0.550000	0.004181	-0.000092
0.560000	0.004018	-0.000285
0.570000	0.004028	0.000183
0.580000	0.004008	-0.000285
0.590000	0.004344	-0.000610
0.600000	0.004466	-0.000112
0.610000	0.004547	0.000397
0.620000	0.004334	0.000468
0.630000	0.003449	-0.000580
0.640000	0.003215	-0.000610
0.650000	0.003744	0.000427
0.660000	0.003855	-0.000285
0.670000	0.004405	0.000142
0.680000	0.003927	-0.000142
0.690000	0.004334	0.000264
0.700000	0.004293	-0.000081
0.710000	0.004069	0.000203
0.720000	0.004649	0.000661
0.730000	0.004527	-0.000031
0.740000	0.004415	0.000498
0.750000	0.003774	-0.000142
0.760000	0.003662	-0.000000
0.770000	0.004028	0.000061
0.780000	0.004313	-0.000071
0.790000	0.004201	0.000376
0.800000	0.003194	-0.000315
0.810000	0.003499	-0.000559
0.820000	0.003723	0.000427
0.830000	0.004211	0.000580
0.840000	0.004527	0.000264
0.850000	0.004181	0.000509
0.860000	0.004059	-0.000102
0.870000	0.003194	-0.000031
0.880000	0.004161	-0.000387
0.890000	0.004506	-0.000173
0.900000	0.003886	0.000315
0.910000	0.004557	-0.000387
0.920000	0.004374	0.000041
0.930000	0.004720	0.000549
0.940000	0.004771	-0.000132
0.950000	0.004629	-0.000366
0.960000	0.003886	-0.000203
0.970000	0.004150	-0.000173
0.980000	0.004272	0.000295
0.990000	0.003967	0.000193
1.000000	0.003947	0.000051
1.010000	0.004161	0.000203
1.020000	0.004303	-0.000539
1.030000	0.005035	-0.000427
1.040000	0.004161	0.000244
1.050000	0.004486	-0.000092
1.060000	0.004517	0.000264
1.070000	0.004445	0.000326
1.080000	0.004496	-0.000041
1.090000	0.004791	-0.000366
1.100000	0.004995	-0.000346
1.110000	0.003937	-0.000122
1.120000	0.004252	-0.000214
1.130000	0.004903	0.000203
1.140000	0.004425	0.000661
1.150000	0.003510	0.000203
1.160000	0.004588	-0.000234
1.170000	0.004822	-0.000132
1.180000	0.004791	-0.000153
1.190000	0.004700	0.000671
1.200000	0.004598	0.000122
1.210000	0.005473	0.000743
1.220000	0.005096	-0.000031
1.230000	0.004974	0.000092
1.240000	0.005453	0.000519
1.250000	0.004924	0.000885
1.260000	0.005442	0.000214
1.270000	0.004781	-0.000153
1.280000	0.005544	0.000295
1.290000	0.006836	-0.000020
1.300000	0.008362	0.000366
1.310000	0.010122	0.000580
1.320000	0.013041	0.001129
1.330000	0.017253	0.002970
1.340000	0.019582	0.003957
1.350000	0.019694	0.004456
1.360000	0.015340	0.004486
1.370000	0.008148	0.003499
1.380000	-0.001322	0.001597
1.390000	-0.008047	-0.001394
1.400000	-0.015279	-0.003855
1.410000	-0.017639	-0.006968
1.420000	-0.016052	-0.007690
1.430000	-0.011892	-0.006093
1.440000	-0.007772	-0.004272
1.450000	-0.004679	-0.002533
1.460000	-0.001139	-0.000051
1.470000	0.001211	0.001689
1.480000	0.005137	0.001719
1.490000	0.009939	0.003255
1.500000	0.014282	0.003123
1.510000	0.018952	0.002136
1.520000	0.025950	0.002899
1.530000	0.027212	0.005870
1.540000	0.026734	0.007090
1.550000	0.021983	0.004272
1.560000	0.010346	0.004079
1.570000	-0.008972	-0.001994
1.580000	-0.020508	-0.006460
1.590000	-0.028615	-0.010783
1.600000	-0.030630	-0.013143
1.610000	-0.026917	-0.012095
1.620000	-0.021098	-0.009684
1.630000	-0.013804	-0.005463
1.640000	-0.009003	-0.000315
1.650000	-0.004476	0.001811
1.660000	-0.003845	0.003499
1.670000	-0.001129	0.004537
1.680000	-0.000417	0.004334
1.690000	0.000682	0.004313
1.700000	0.004028	0.003215
1.710000	0.004832	0.002126
1.720000	0.008281	0.000743
1.730000	0.010691	-0.000407
1.740000	0.011749	-0.001526
1.750000	0.012665	-0.002177
1.760000	0.013875	-0.003540
1.770000	0.014964	-0.002757
1.780000	0.014150	-0.003174
1.790000	0.012604	-0.002594
1.800000	0.010956	-0.002909
1.810000	0.009796	-0.001902
1.820000	0.008016	0.000173
1.830000	0.006938	0.000407
1.840000	0.004710	0.001383
1.850000	0.003764	0.001434
1.860000	0.003255	0.002431
1.870000	0.003174	0.004496
1.880000	0.002879	0.003794
1.890000	0.004079	0.003947
1.900000	0.005117	0.003052
1.910000	0.006338	0.001434
1.920000	0.008372	0.001953
1.930000	0.008881	0.001170
1.940000	0.010457	0.000051
1.950000	0.011912	-0.001190
1.960000	0.012472	-0.001862
1.970000	0.012543	-0.002096
1.980000	0.012461	-0.002146
1.990000	0.011566	-0.001821
2.000000	0.010254	-0.001495
2.010000	0.009654	-0.001556
2.020000	0.008097	-0.000651
2.030000	0.006378	0.000834
2.040000	0.004873	0.000977
2.050000	0.003377	0.000956
2.060000	0.001495	0.002645
2.070000	0.001475	0.002401
2.080000	0.001750	0.002431
2.090000	0.002014	0.003184
2.100000	0.003550	0.002645
2.110000	0.003866	0.002787
2.120000	0.004862	0.001445
2.130000	0.006368	0.000326
2.140000	0.007497	0.000448
2.150000	0.008921	-0.000692
2.160000	0.008921	-0.001272
2.170000	0.008677	-0.001333
2.180000	0.009196	-0.001190
2.190000	0.009104	-0.001668
2.200000	0.008270	-0.002045
2.210000	0.007304	-0.001383
2.220000	0.006002	-0.001567
2.230000	0.004069	-0.000966
2.240000	0.003469	-0.000153
2.250000	0.003316	0.000437
2.260000	0.002696	0.001261
2.270000	0.001923	0.000549
2.280000	0.001699	0.001668
2.290000	0.000773	0.002655
2.300000	0.002218	0.001750
2.310000	0.002065	0.002279
2.320000	0.003042	0.001577
2.330000	0.004161	0.000844
2.340000	0.005178	0.000865
2.350000	0.005534	0.000173
2.360000	0.006439	0.000173
2.370000	0.006002	-0.001251
2.380000	0.007345	-0.001109
2.390000	0.006582	-0.000885
2.400000	0.006856	-0.001984
2.410000	0.006663	-0.000905
2.420000	0.005534	-0.000570
2.430000	0.004893	-0.000712
2.440000	0.004140	-0.000478
2.450000	0.003215	0.000132
2.460000	0.002523	0.000509
2.470000	0.002106	0.001099
2.480000	0.001892	0.001333
2.490000	0.000946	0.001058
2.500000	0.001984	0.001139
2.510000	0.001353	0.001068
2.520000	0.001892	0.000661
2.530000	0.002655	0.000651
2.540000	0.003194	0.000692
2.550000	0.004039	-0.000682
2.560000	0.004425	0.000041
2.570000	0.004679	-0.000875
2.580000	0.004995	-0.000702
2.590000	0.005646	-0.000854
2.600000	0.005381	-0.000549
2.610000	0.004171	-0.000417
2.620000	0.004771	-0.000773
2.630000	0.005066	-0.000946
2.640000	0.003906	-0.001617
2.650000	0.003591	-0.000509
2.660000	0.003103	-0.000203
2.670000	0.003062	0.000468
2.680000	0.002431	0.000834
2.690000	0.001923	0.000478
2.700000	0.001872	0.000834
2.710000	0.001902	0.000559
2.720000	0.002146	0.000488
2.730000	0.002797	-0.000458
2.740000	0.002675	0.000773
2.750000	0.003469	-0.000732
2.760000	0.003377	-0.000539
2.770000	0.003906	-0.000519
2.780000	0.004435	-0.000285
2.790000	0.004791	-0.000865
2.800000	0.003449	-0.000865
2.810000	0.004283	-0.000844
2.820000	0.003337	-0.000682
2.830000	0.004862	-0.000387
2.840000	0.003591	-0.000336
2.850000	0.003499	-0.000122
2.860000	0.003357	0.000041
2.870000	0.003103	0.000621
2.880000	0.003194	0.000570
2.890000	0.003052	0.000102
2.900000	0.002828	0.000458
2.910000	0.003143	0.000356
2.920000	0.003123	0.000132
2.930000	0.003418	0.000559
2.940000	0.003855	0.000509
2.950000	0.004405	-0.000804
2.960000	0.004293	-0.000214
2.970000	0.004679	-0.000743
2.980000	0.005239	-0.000580
2.990000	0.005046	-0.000539
3.000000	0.004415	-0.000753
3.010000	0.005025	-0.000387
3.020000	0.004323	-0.000712
3.030000	0.004567	-0.000234
3.040000	0.004191	0.000051
3.050000	0.003621	-0.000173
3.060000	0.003377	-0.000153
3.070000	0.003825	0.000844
3.080000	0.002879	-0.000387
3.090000	0.003103	0.000926
3.100000	0.004598	0.001678
3.110000	0.003571	0.000519
3.120000	0.003296	-0.000061
3.130000	0.004344	0.000570
3.140000	0.004059	0.000092
3.150000	0.005259	-0.000102
3.160000	0.005168	-0.000122
3.170000	0.004924	-0.001068
3.180000	0.004486	-0.000529
3.190000	0.005137	-0.000549
3.200000	0.005198	-0.000549
3.210000	0.005351	-0.000661
3.220000	0.004639	-0.000814
3.230000	0.004690	0.000366
3.240000	0.004089	0.000275
3.250000	0.003632	-0.000092
3.260000	0.003225	0.000580
3.270000	0.003652	0.001312
3.280000	0.003550	0.000234
3.290000	0.004028	0.001078
3.300000	0.003916	0.000763
3.310000	0.003886	0.000783
3.320000	0.004100	0.000071
3.330000	0.004272	0.000264
3.340000	0.005076	0.000468
3.350000	0.004761	-0.000122
3.360000	0.005137	0.000051
3.370000	0.005412	-0.000356
3.380000	0.005585	-0.000234
3.390000	0.005554	-0.001099
3.400000	0.004873	-0.000631
3.410000	0.005351	-0.000549
3.420000	0.004964	0.000285
3.430000	0.004517	-0.000580
3.440000	0.004252	-0.000051
3.450000	0.003855	-0.000214
3.460000	0.003245	0.000163
3.470000	0.004110	0.000051
3.480000	0.003499	0.000631
3.490000	0.003459	0.000600
3.500000	0.004496	0.000387
3.510000	0.003988	0.000122
3.520000	0.003815	0.000061
3.530000	0.003733	-0.000061
3.540000	0.003876	-0.000102
3.550000	0.005859	0.000071
3.560000	0.004740	-0.000295
3.570000	0.005819	-0.000376
3.580000	0.005402	-0.000966
3.590000	0.005798	-0.000875
3.600000	0.005361	-0.000529
3.610000	0.005066	0.000122
3.620000	0.005320	-0.000214
3.630000	0.004293	-0.000509
3.640000	0.005056	0.000000
3.650000	0.004527	0.000753
3.660000	0.004171	0.000397
3.670000	0.004181	0.000346
3.680000	0.003916	-0.000010
3.690000	0.003886	0.000692
3.700000	0.004079	0.000804
3.710000	0.004161	0.000295
3.720000	0.004344	-0.000183
3.730000	0.004618	0.000153
3.740000	0.004120	0.000142
3.750000	0.005188	0.000142
3.760000	0.004415	-0.000509
3.770000	0.005005	-0.000977
3.780000	0.005168	-0.001302
3.790000	0.004679	-0.000295
3.800000	0.005107	-0.000275
3.810000	0.004913	-0.000885
3.820000	0.004720	-0.000244
3.830000	0.004669	-0.000112
3.840000	0.004679	0.000112
3.850000	0.004578	-0.000346
3.860000	0.003510	0.000804
3.870000	0.003876	0.000142
3.880000	0.003326	-0.000214
3.890000	0.003988	0.000559
3.900000	0.004211	0.000295
3.910000	0.004578	0.000295
3.920000	0.003825	0.000031
3.930000	0.003988	-0.000417
3.940000	0.004262	0.000305
3.950000	0.004567	0.000661
3.960000	0.004181	-0.000346
3.970000	0.004832	-0.000203
3.980000	0.004486	0.000254
3.990000	0.004903	0.000163
4.000000	0.004954	-0.000783
4.010000	0.004425	0.000092
4.020000	0.004710	-0.000264
4.030000	0.004293	-0.000356
4.040000	0.004476	-0.000061
4.050000	0.004506	-0.000712
4.060000	0.004415	-0.000051
4.070000	0.003560	-0.000010
4.080000	0.003805	-0.000071
4.090000	0.003398	0.000753
4.100000	0.004140	0.000295
4.110000	0.004211	0.000336
4.120000	0.003794	-0.000020
4.130000	0.004252	0.000081
4.140000	0.003479	0.000142
4.150000	0.004700	0.000682
4.160000	0.005300	0.000651
4.170000	0.004985	-0.000264
4.180000	0.005361	0.000020
4.190000	0.005310	0.000743
4.200000	0.005534	-0.000427
4.210000	0.004384	-0.000610
4.220000	0.003805	-0.000092
4.230000	0.004781	0.000132
4.240000	0.004364	0.000458
4.250000	0.004781	-0.000315
4.260000	0.004283	-0.000153
4.270000	0.003845	0.000804
4.280000	0.004527	0.000793
4.290000	0.004659	-0.000498
4.300000	0.004517	0.000559
4.310000	0.004405	0.000519
4.320000	0.004242	0.000203
4.330000	0.005147	0.000651
4.340000	0.004679	0.000407
4.350000	0.005351	0.000285
4.360000	0.004852	-0.000214
4.370000	0.003916	-0.000682
4.380000	0.004272	-0.000478
4.390000	0.004211	-0.000824
4.400000	0.004730	-0.000305
4.410000	0.004995	-0.000977
4.420000	0.004395	-0.000519
4.430000	0.004242	0.000061
4.440000	0.004456	0.000336
4.450000	0.003825	-0.000397
4.460000	0.004069	-0.000234
4.470000	0.004740	0.000092
4.480000	0.003977	0.000977
4.490000	0.004669	0.000081
4.500000	0.004679	-0.000671
4.510000	0.004018	-0.000031
4.520000	0.003703	0.000071
4.530000	0.003967	-0.000254
4.540000	0.004272	-0.000336
4.550000	0.004852	-0.000987
4.560000	0.005005	-0.000254
4.570000	0.005483	-0.000458
4.580000	0.004679	-0.000112
4.590000	0.004283	-0.000366
4.600000	0.004873	0.000264
4.610000	0.003886	-0.001211
4.620000	0.003886	-0.000661
4.630000	0.003723	0.000600
4.640000	0.003886	-0.000692
4.650000	0.004171	-0.000183
4.660000	0.004781	0.000580
4.670000	0.004862	0.000488
4.680000	0.004618	0.000163
4.690000	0.004181	-0.000203
4.700000	0.003967	0.000753
4.710000	0.004964	-0.000315
4.720000	0.004405	0.000102
4.730000	0.004395	0.000275
4.740000	0.004842	0.000661
4.750000	0.004313	-0.000580
4.760000	0.005402	0.000203
4.770000	0.004832	-0.000153
4.780000	0.004913	-0.000102
4.790000	0.004395	-0.000580
4.800000	0.004049	-0.000305
4.810000	0.004323	-0.000936
4.820000	0.004883	-0.000844
4.830000	0.004059	0.000285
4.840000	0.003845	-0.000122
4.850000	0.004222	-0.000061
4.860000	0.004883	-0.000112
4.870000	0.004079	-0.000132
4.880000	0.003937	0.000102
4.890000	0.004415	0.000295
4.900000	0.004354	0.000153
4.910000	0.004700	0.000254
4.920000	0.004639	-0.000122
4.930000	0.004629	-0.000336
4.940000	0.004344	-0.000142
4.950000	0.004974	0.000305
4.960000	0.004812	-0.000488
4.970000	0.004761	0.000488
4.980000	0.004313	-0.000264
4.990000	0.005341	0.000041
5.000000	0.004842	-0.000417
5.010000	0.004506	0.000071
5.020000	0.004740	-0.000437
5.030000	0.005005	-0.000661
5.040000	0.004150	-0.000224
5.050000	0.004384	0.000661
5.060000	0.004354	0.000092
5.070000	0.004018	-0.000173
5.080000	0.003591	-0.000112
5.090000	0.004252	0.000142
5.100000	0.004222	-0.000682
5.110000	0.004130	-0.000305
5.120000	0.004272	-0.000671
5.130000	0.004832	0.000020
5.140000	0.004161	-0.000326
5.150000	0.005086	-0.000610
5.160000	0.005076	-0.000549
5.170000	0.004313	0.000356
5.180000	0.004161	0.000010
5.190000	0.004496	0.000234
5.200000	0.004374	-0.000295
5.210000	0.004252	-0.000397
5.220000	0.004669	0.000051
5.230000	0.004822	-0.000112
5.240000	0.004161	0.000020
5.250000	0.004435	0.000061
5.260000	0.004374	0.000264
5.270000	0.004171	0.000153
5.280000	0.004100	0.000193
5.290000	0.004262	-0.000315
5.300000	0.003855	0.000142
5.310000	0.004588	0.000234
5.320000	0.004578	0.000122
5.330000	0.004069	-0.000112
5.340000	0.004873	-0.000031
5.350000	0.004618	-0.000458
5.360000	0.004913	-0.000264
5.370000	0.005442	0.000071
5.380000	0.005046	0.000448
5.390000	0.005137	-0.000244
5.400000	0.003988	-0.000610
5.410000	0.004567	0.000163
5.420000	0.004659	-0.000671
5.430000	0.005086	0.000193
5.440000	0.004761	0.000651
5.450000	0.004964	0.000051
5.460000	0.004445	0.000112
5.470000	0.004710	0.000193
5.480000	0.004659	0.000244
5.490000	0.004649	-0.000346
5.500000	0.004659	-0.000041
5.510000	0.004445	0.000610
5.520000	0.004232	0.000458
5.530000	0.004842	-0.000142
5.540000	0.004395	0.000010
5.550000	0.004272	-0.000112
5.560000	0.004832	-0.000244
5.570000	0.004466	0.000061
5.580000	0.004761	-0.000112
5.590000	0.004344	-0.000051
5.600000	0.004639	-0.000366
5.610000	0.004934	0.000458
5.620000	0.004598	0.000315
5.630000	0.004435	-0.000020
5.640000	0.004313	-0.000153
5.650000	0.004669	0.000132
5.660000	0.004344	0.000092
5.670000	0.004252	0.000488
5.680000	0.004374	-0.000336
5.690000	0.004506	-0.000264
5.700000	0.004710	0.000193
5.710000	0.004456	0.000458
5.720000	0.004008	-0.000214
5.730000	0.004496	0.000549
5.740000	0.004130	0.000142
5.750000	0.004730	0.000183
5.760000	0.004883	0.000285
5.770000	0.004364	0.000315
5.780000	0.005005	0.000315
5.790000	0.004364	-0.000183
5.800000	0.004537	-0.000071
5.810000	0.005056	-0.000010
5.820000	0.005005	-0.000081
5.830000	0.004710	0.000031
5.840000	0.004730	0.000326
5.850000	0.004456	-0.000142
5.860000	0.004028	-0.000498
5.870000	0.004405	0.000346
5.880000	0.004130	-0.000346
5.890000	0.003794	0.000020
5.900000	0.004934	-0.000041
5.910000	0.004506	0.000254
5.920000	0.004812	-0.000224
5.930000	0.004354	0.000295
5.940000	0.004730	0.000051
5.950000	0.004679	0.000193
5.960000	0.004018	0.000671
5.970000	0.004873	0.000122
5.980000	0.004496	-0.000092
5.990000	0.004181	0.000244
6.000000	0.004171	0.000590
6.010000	0.004252	0.000020
6.020000	0.003947	0.000356
6.030000	0.004110	0.000122
6.040000	0.004496	-0.000041
6.050000	0.004079	0.000000
6.060000	0.004242	0.000549
6.070000	0.004618	0.000366
6.080000	0.004842	0.000376
6.090000	0.004557	0.000895
6.100000	0.004649	-0.000631
6.110000	0.004812	0.000468
6.120000	0.005076	-0.000163
6.130000	0.004161	-0.000183
6.140000	0.004456	0.000407
6.150000	0.003988	0.000885
6.160000	0.004039	0.000071
6.170000	0.004781	0.000010
6.180000	0.004334	-0.000264
6.190000	0.004659	-0.000071
6.200000	0.003967	-0.000519
6.210000	0.004445	0.000132
6.220000	0.004272	-0.000112
6.230000	0.004425	-0.000041
6.240000	0.003927	0.000346
6.250000	0.004293	-0.000722
6.260000	0.004567	-0.000203
6.270000	0.004466	0.000336
6.280000	0.004944	-0.000926
6.290000	0.004832	-0.000356
6.300000	0.003469	0.000041
6.310000	0.004862	-0.000946
6.320000	0.003591	0.000020
6.330000	0.004791	0.000326
6.340000	0.004496	-0.000092
6.350000	0.004527	0.000427
6.360000	0.003947	-0.000254
6.370000	0.004334	0.000437
6.380000	0.004740	-0.000509
6.390000	0.004405	-0.000356
6.400000	0.003988	-0.000234
6.410000	0.004171	-0.000244
6.420000	0.004130	-0.000509
6.430000	0.005076	0.000081
6.440000	0.004130	0.000163
6.450000	0.005147	-0.000559
6.460000	0.004018	0.000356
6.470000	0.004313	0.000631
6.480000	0.004262	-0.000224
6.490000	0.005269	0.001139
6.500000	0.004496	-0.000051
6.510000	0.004517	-0.000214
6.520000	0.004781	-0.000468
6.530000	0.005137	-0.000020
6.540000	0.004557	0.000041
6.550000	0.004639	0.000224
6.560000	0.004883	-0.000254
6.570000	0.004903	-0.000183
6.580000	0.004039	-0.000519
6.590000	0.004334	-0.000193
6.600000	0.004425	0.000092
6.610000	0.005351	0.000529
6.620000	0.004425	0.000865
6.630000	0.004100	-0.000153
6.640000	0.003825	-0.000031
6.650000	0.004629	-0.000142
6.660000	0.004852	0.000397
6.670000	0.003947	0.000305
6.680000	0.004161	0.000326
6.690000	0.004608	0.000112
6.700000	0.004629	0.000580
6.710000	0.004181	-0.000437
6.720000	0.004751	-0.000203
6.730000	0.004669	-0.000356
6.740000	0.005056	-0.000702
6.750000	0.003927	0.000020
6.760000	0.004445	-0.000458
6.770000	0.004730	0.000651
6.780000	0.004710	-0.000061
6.790000	0.004995	-0.000041
6.800000	0.004791	-0.000041
6.810000	0.004954	-0.000102
6.820000	0.004049	0.000407
6.830000	0.004384	-0.000305
6.840000	0.004140	0.000407
6.850000	0.004252	-0.000020
6.860000	0.004720	-0.000020
6.870000	0.004832	-0.000122
6.880000	0.004018	-0.000081
6.890000	0.004018	-0.000834
6.900000	0.003916	-0.000071
6.910000	0.004903	0.000203
6.920000	0.004537	0.000031
6.930000	0.004100	0.000407
6.940000	0.004517	0.000448
6.950000	0.004629	-0.000224
6.960000	0.005178	-0.001292
6.970000	0.004161	0.000153
6.980000	0.003438	0.000142
6.990000	0.003988	-0.000539
7.000000	0.004110	0.000010
7.010000	0.003977	-0.000549
7.020000	0.004913	-0.000753
7.030000	0.003876	-0.000559
7.040000	0.003479	-0.000356
7.050000	0.004425	0.000509
7.060000	0.004730	0.000946
7.070000	0.004181	0.000844
7.080000	0.004567	-0.000305
7.090000	0.003265	0.000092
7.100000	0.003815	-0.000519
7.110000	0.004934	0.000020
7.120000	0.005239	-0.000448
7.130000	0.004832	0.000173
7.140000	0.004222	-0.000132
7.150000	0.004018	0.000000
7.160000	0.004161	0.000519
7.170000	0.004547	0.000031
7.180000	0.005137	0.000183
7.190000	0.004690	0.000488
7.200000	0.004883	-0.000519
7.210000	0.004710	0.000814
7.220000	0.003825	0.000834
7.230000	0.004466	-0.000041
7.240000	0.003560	0.000183
7.250000	0.004710	-0.000000
7.260000	0.004466	-0.000661
7.270000	0.003632	-0.000590
7.280000	0.005025	-0.000671
7.290000	0.004476	0.000346
7.300000	0.004486	0.000305
7.310000	0.004608	-0.000041
7.320000	0.004761	0.000783
7.330000	0.004751	0.000193
7.340000	0.004506	-0.000041
7.350000	0.004862	-0.000122
7.360000	0.005117	0.000163
7.370000	0.005117	-0.000295
7.380000	0.004567	-0.000081
7.390000	0.005371	-0.000071
7.400000	0.005025	-0.000376
7.410000	0.004690	-0.000580
7.420000	0.004730	-0.000305
7.430000	0.004435	0.001088
7.440000	0.004730	-0.000051
7.450000	0.004659	0.000031
7.460000	0.004293	0.000570
7.470000	0.004506	0.000020
7.480000	0.004954	-0.000041
7.490000	0.005198	-0.000142
7.500000	0.005005	-0.000051
7.510000	0.005117	-0.000315
7.520000	0.004039	-0.000509
7.530000	0.005219	-0.000051
7.540000	0.004476	0.000092
7.550000	0.005107	0.000081
7.560000	0.004303	0.000478
7.570000	0.005168	-0.000041
7.580000	0.004232	-0.000193
7.590000	0.004303	-0.000193
7.600000	0.004761	0.000092
7.610000	0.004059	-0.000163
7.620000	0.004232	-0.000315
7.630000	0.004578	0.000397
7.640000	0.004405	-0.000092
7.650000	0.004445	0.000122
7.660000	0.004801	0.000081
7.670000	0.004934	-0.000224
7.680000	0.004700	0.000081
7.690000	0.004069	-0.000264
7.700000	0.004415	0.000661
7.710000	0.004883	-0.000722
7.720000	0.004791	0.000295
7.730000	0.004954	-0.000224
7.740000	0.004211	-0.000183
7.750000	0.004690	0.000153
7.760000	0.004893	-0.000346
7.770000	0.004445	0.000081
7.780000	0.004283	-0.000224
7.790000	0.004161	0.000142
7.800000	0.004252	-0.000214
7.810000	0.004924	0.000376
7.820000	0.004842	-0.000051
7.830000	0.004405	-0.000264
7.840000	0.004283	0.000234
7.850000	0.003601	0.000559
7.860000	0.004924	-0.000081
7.870000	0.003835	0.000122
7.880000	0.004801	-0.000092
7.890000	0.004425	0.000305
7.900000	0.004547	0.000092
7.910000	0.004059	0.000977
7.920000	0.004181	0.000498
7.930000	0.005351	-0.000285
7.940000	0.005025	-0.000142
7.950000	0.004405	0.000346
7.960000	0.005219	-0.000234
7.970000	0.005636	0.000315
7.980000	0.004771	0.000000
7.990000	0.004629	-0.000153
8.000000	0.004486	0.000041
8.010000	0.004069	0.000132
8.020000	0.004496	0.000010
8.030000	0.005280	0.000193
8.040000	0.004822	-0.000020
8.050000	0.004110	0.000163
8.060000	0.004395	-0.000417
8.070000	0.003642	0.000295
8.080000	0.003652	0.000509
8.090000	0.004690	0.000987
8.100000	0.003713	0.000356
8.110000	0.004456	0.000234
8.120000	0.004364	-0.000081
8.130000	0.004588	-0.000387
8.140000	0.005005	-0.000539
8.150000	0.004842	-0.000336
8.160000	0.004985	-0.000580
8.170000	0.005168	0.000468
8.180000	0.004150	-0.000336
8.190000	0.004323	-0.000346
8.200000	0.004384	-0.000081
8.210000	0.004598	-0.000020
8.220000	0.005188	0.000285
8.230000	0.003723	0.000580
8.240000	0.004649	0.000081
8.250000	0.004690	0.000305
8.260000	0.004344	0.000163
8.270000	0.004089	0.000010
8.280000	0.003916	0.000498
8.290000	0.004395	0.000214
8.300000	0.004700	-0.000529
8.310000	0.005056	0.000092
8.320000	0.004852	-0.000020
8.330000	0.004781	-0.000824
8.340000	0.004476	0.000081
8.350000	0.004629	-0.000305
8.360000	0.005005	-0.000498
8.370000	0.004669	-0.000183
8.380000	0.004415	0.000173
8.390000	0.005269	0.000315
8.400000	0.004395	-0.000071
8.410000	0.004191	-0.000387
8.420000	0.005015	-0.000712
8.430000	0.004781	-0.000020
8.440000	0.004679	-0.000041
8.450000	0.003601	0.000051
8.460000	0.003988	0.000122
8.470000	0.004242	-0.000793
8.480000	0.004415	-0.000092
8.490000	0.003845	-0.000173
8.500000	0.004578	0.000031
8.510000	0.004089	0.000041
8.520000	0.004161	0.000692
8.530000	0.004323	-0.000346
8.540000	0.004669	0.000214
8.550000	0.004720	-0.000295
8.560000	0.004669	-0.000051
8.570000	0.005137	0.000081
8.580000	0.004740	-0.000336
8.590000	0.004974	-0.000397
8.600000	0.004232	0.000203
8.610000	0.004537	0.000132
8.620000	0.005127	0.000346
8.630000	0.003682	-0.000112
8.640000	0.004100	-0.000163
8.650000	0.003733	-0.000234
8.660000	0.003662	0.000285
8.670000	0.003916	0.000559
8.680000	0.004262	0.000570
8.690000	0.004903	0.000407
8.700000	0.004496	-0.000641
8.710000	0.004974	-0.000295
8.720000	0.003845	-0.000132
8.730000	0.004781	-0.000539
8.740000	0.004425	-0.000621
8.750000	0.004771	-0.000610
8.760000	0.004852	0.000122
8.770000	0.004161	0.000214
8.780000	0.004527	-0.000071
8.790000	0.003967	0.000539
8.800000	0.004506	-0.000275
8.810000	0.004608	-0.000315
8.820000	0.004171	-0.000071
8.830000	0.003866	-0.000092
8.840000	0.004364	-0.000092
8.850000	0.004700	-0.001068
8.860000	0.005096	-0.000631
8.870000	0.004679	-0.000153
8.880000	0.004629	0.000682
8.890000	0.004161	-0.000264
8.900000	0.004893	0.000071
8.910000	0.005249	-0.000102
8.920000	0.004384	0.000366
8.930000	0.004781	0.000193
8.940000	0.004100	0.000315
8.950000	0.004985	-0.000712
8.960000	0.004995	-0.000997
8.970000	0.004130	0.000020
8.980000	0.003927	0.000214
8.990000	0.004079	-0.000122
9.000000	0.004639	-0.000722
9.010000	0.004964	-0.000824
9.020000	0.004283	0.000336
9.030000	0.004191	0.000203
9.040000	0.004547	-0.000376
9.050000	0.004801	0.000102
9.060000	0.004445	-0.000519
9.070000	0.004456	-0.001129
9.080000	0.003957	-0.000275
9.090000	0.003764	0.000692
9.100000	0.004903	0.000132
9.110000	0.004130	-0.000387
9.120000	0.005056	0.000020
9.130000	0.004486	0.000285
9.140000	0.005005	-0.000224
9.150000	0.004354	-0.000102
9.160000	0.005127	-0.000590
9.170000	0.004415	-0.000661
9.180000	0.004629	-0.000336
9.190000	0.004649	-0.000203
9.200000	0.004201	-0.000010
9.210000	0.004893	0.000641
9.220000	0.004659	-0.000051
9.230000	0.004639	-0.000061
9.240000	0.004374	0.000793
9.250000	0.004954	-0.000610
9.260000	0.004629	-0.000326
9.270000	0.004954	0.000519
9.280000	0.004344	0.000285
9.290000	0.004313	-0.000264
9.300000	0.003418	-0.000498
9.310000	0.004384	-0.000559
9.320000	0.004384	-0.000031
9.330000	0.003825	0.000112
9.340000	0.004730	-0.000031
9.350000	0.004954	-0.000081
9.360000	0.004913	-0.000641
9.370000	0.004425	-0.000600
9.380000	0.004547	0.000020
9.390000	0.004618	0.000102
9.400000	0.004629	0.001302
9.410000	0.004140	-0.000315
9.420000	0.004313	-0.000315
9.430000	0.004598	0.000061
9.440000	0.004395	-0.000031
9.450000	0.004629	0.000061
9.460000	0.004506	-0.000081
9.470000	0.004924	-0.000244
9.480000	0.004486	-0.000254
9.490000	0.004832	-0.000295
9.500000	0.004567	-0.000763
9.510000	0.005107	0.000163
9.520000	0.004140	-0.000153
9.530000	0.004588	-0.000173
9.540000	0.004313	0.000081
9.550000	0.003937	-0.000163
9.560000	0.004954	-0.000376
9.570000	0.004751	0.000020
9.580000	0.004425	-0.000173
9.590000	0.004842	0.000203
9.600000	0.004761	0.000183
9.610000	0.004629	-0.000264
9.620000	0.003672	-0.000031
9.630000	0.003876	-0.000142
9.640000	0.004028	0.000051
9.650000	0.004283	-0.000295
9.660000	0.004598	0.000326
9.670000	0.004334	-0.000102
9.680000	0.004181	0.000173
9.690000	0.004557	-0.000570
9.700000	0.004608	-0.000041
9.710000	0.004415	-0.000356
9.720000	0.004527	-0.000102
9.730000	0.003896	0.000163
9.740000	0.004629	0.000071
9.750000	0.004537	-0.000509
9.760000	0.004354	-0.000163
9.770000	0.004730	-0.000051
9.780000	0.004801	0.000458
9.790000	0.004089	0.000326
9.800000	0.004120	0.000092
9.810000	0.004079	-0.000142
9.820000	0.004161	0.000305
9.830000	0.004262	0.000275
9.840000	0.003886	0.000203
9.850000	0.004995	-0.000397
9.860000	0.005188	-0.000102
9.870000	0.004039	-0.000387
9.880000	0.004201	-0.000000
9.890000	0.004690	0.000264
9.900000	0.004852	0.000234
9.910000	0.004466	-0.000031
9.920000	0.004862	-0.000051
9.930000	0.004547	-0.000488
9.940000	0.004730	0.000275
9.950000	0.004771	-0.000041
9.960000	0.004649	-0.000010
9.970000	0.004496	0.000478
9.980000	0.003825	-0.000031
9.990000	0.004222	-0.000763
10.000000	0.004354	0.000132
