UBB Dec12 2007 Average.d24 - THz Start: 187.69 mm, 1000 points, 10 fs - Pump Probe Time: 1.25 ps, Pump Motor Position: 95.2650 mm, 46 points, -50 fs - Wait: 400 ms -  Averages: 1 - Lock-In 1: 500 mV/mA, 100 ms - Lock-In 2: 500 mV/mA, 100 ms
0.010000	0.004964	-0.000051
0.020000	0.004598	0.000519
0.030000	0.004832	0.000285
0.040000	0.005117	0.000234
0.050000	0.004985	0.000824
0.060000	0.004893	0.000437
0.070000	0.004974	0.000315
0.080000	0.004181	0.000102
0.090000	0.004364	-0.000020
0.100000	0.004303	0.000051
0.110000	0.004557	0.000488
0.120000	0.004710	0.000946
0.130000	0.005269	-0.000437
0.140000	0.004425	-0.000641
0.150000	0.004842	-0.000193
0.160000	0.004893	-0.000173
0.170000	0.004527	0.000264
0.180000	0.005015	-0.000153
0.190000	0.004710	-0.000437
0.200000	0.004761	0.000498
0.210000	0.004354	0.000112
0.220000	0.004303	0.000224
0.230000	0.004313	0.000031
0.240000	0.004222	-0.000376
0.250000	0.003632	0.000081
0.260000	0.004028	-0.000031
0.270000	0.004262	-0.000539
0.280000	0.004690	0.000020
0.290000	0.004171	-0.000214
0.300000	0.005920	-0.000519
0.310000	0.004873	-0.000305
0.320000	0.004995	0.000153
0.330000	0.005005	0.000122
0.340000	0.004476	0.000173
0.350000	0.004435	0.000478
0.360000	0.004557	-0.000244
0.370000	0.003794	-0.000092
0.380000	0.004751	-0.000610
0.390000	0.004842	-0.000580
0.400000	0.004232	-0.000315
0.410000	0.004079	0.000163
0.420000	0.005046	-0.000763
0.430000	0.004527	-0.000519
0.440000	0.004405	-0.000142
0.450000	0.003866	-0.000468
0.460000	0.004781	0.000010
0.470000	0.003764	-0.000031
0.480000	0.004181	-0.000010
0.490000	0.004873	-0.000193
0.500000	0.004822	-0.000600
0.510000	0.003530	-0.001027
0.520000	0.003794	0.000041
0.530000	0.004517	-0.000671
0.540000	0.005015	-0.000173
0.550000	0.004608	0.000132
0.560000	0.004272	-0.000285
0.570000	0.004679	-0.000336
0.580000	0.003784	0.000122
0.590000	0.004405	-0.000122
0.600000	0.003937	-0.000590
0.610000	0.004456	0.000336
0.620000	0.004649	-0.000203
0.630000	0.004181	0.000264
0.640000	0.004334	0.000142
0.650000	0.004913	-0.000163
0.660000	0.004201	0.000295
0.670000	0.004486	-0.000488
0.680000	0.003733	-0.000142
0.690000	0.004059	-0.000203
0.700000	0.005025	0.000254
0.710000	0.003855	0.000224
0.720000	0.004262	-0.000264
0.730000	0.003845	-0.000010
0.740000	0.004079	0.000366
0.750000	0.004191	0.000285
0.760000	0.003825	-0.000559
0.770000	0.004344	-0.000142
0.780000	0.004211	-0.000254
0.790000	0.004730	-0.000071
0.800000	0.004710	-0.000112
0.810000	0.004659	0.000244
0.820000	0.004293	0.000875
0.830000	0.004486	-0.000783
0.840000	0.004954	0.000081
0.850000	0.003815	0.000417
0.860000	0.004395	0.000336
0.870000	0.004283	-0.000122
0.880000	0.004344	-0.000264
0.890000	0.003916	-0.000041
0.900000	0.004334	0.000010
0.910000	0.004801	0.000132
0.920000	0.004262	-0.000112
0.930000	0.003967	-0.000397
0.940000	0.004771	0.000437
0.950000	0.004181	0.000020
0.960000	0.003967	0.000071
0.970000	0.004262	0.000844
0.980000	0.004435	-0.000437
0.990000	0.004466	0.000600
1.000000	0.004995	0.000081
1.010000	0.004771	-0.000153
1.020000	0.003947	0.000366
1.030000	0.004812	-0.000122
1.040000	0.004242	0.000224
1.050000	0.004252	-0.000122
1.060000	0.004791	-0.000214
1.070000	0.005035	-0.000153
1.080000	0.004506	0.000122
1.090000	0.004822	-0.000112
1.100000	0.004995	-0.000224
1.110000	0.004384	0.000682
1.120000	0.004323	0.000061
1.130000	0.004506	-0.000315
1.140000	0.004578	0.000061
1.150000	0.004323	-0.000468
1.160000	0.005005	0.000468
1.170000	0.004913	0.000010
1.180000	0.004842	-0.000295
1.190000	0.004456	0.000336
1.200000	0.004598	-0.000732
1.210000	0.005188	-0.000020
1.220000	0.005992	-0.000264
1.230000	0.004028	0.000651
1.240000	0.004954	0.000397
1.250000	0.004405	0.000234
1.260000	0.005117	0.000834
1.270000	0.006175	0.000600
1.280000	0.005961	0.000692
1.290000	0.005656	0.000051
1.300000	0.004893	0.000519
1.310000	0.005870	0.000559
1.320000	0.005147	0.000061
1.330000	0.005737	-0.000183
1.340000	0.006104	-0.000041
1.350000	0.006144	0.000061
1.360000	0.005391	0.000509
1.370000	0.005748	0.000661
1.380000	0.005829	0.000692
1.390000	0.006612	0.000926
1.400000	0.006805	0.000193
1.410000	0.005514	0.000285
1.420000	0.005351	0.001567
1.430000	0.005290	-0.000224
1.440000	0.006948	0.000224
1.450000	0.008525	-0.000061
1.460000	0.010081	0.000875
1.470000	0.014913	0.001536
1.480000	0.020498	0.002584
1.490000	0.028127	0.003632
1.500000	0.035757	0.007619
1.510000	0.037639	0.009023
1.520000	0.033539	0.011393
1.530000	0.023692	0.010223
1.540000	0.007568	0.006551
1.550000	-0.008698	0.002757
1.560000	-0.026683	-0.008067
1.570000	-0.037740	-0.012522
1.580000	-0.041708	-0.015086
1.590000	-0.043722	-0.017019
1.600000	-0.038198	-0.014191
1.610000	-0.030579	-0.010620
1.620000	-0.021851	-0.005961
1.630000	-0.016571	-0.002065
1.640000	-0.010864	0.000437
1.650000	-0.006388	0.001628
1.660000	-0.003560	0.003286
1.670000	-0.000020	0.002706
1.680000	0.002645	0.000895
1.690000	0.005086	0.000743
1.700000	0.006633	-0.001170
1.710000	0.009186	-0.002167
1.720000	0.010600	-0.003021
1.730000	0.012238	-0.003967
1.740000	0.013123	-0.004008
1.750000	0.013336	-0.004140
1.760000	0.013346	-0.003469
1.770000	0.013194	-0.002594
1.780000	0.011780	-0.001058
1.790000	0.010244	-0.000102
1.800000	0.010671	0.001780
1.810000	0.009674	0.002808
1.820000	0.008260	0.004629
1.830000	0.007741	0.005015
1.840000	0.006541	0.005656
1.850000	0.007141	0.005554
1.860000	0.006907	0.004974
1.870000	0.008158	0.005503
1.880000	0.008962	0.004211
1.890000	0.009349	0.002899
1.900000	0.010925	0.001587
1.910000	0.011668	0.001282
1.920000	0.012655	-0.000234
1.930000	0.013133	-0.001668
1.940000	0.013530	-0.002340
1.950000	0.014018	-0.001963
1.960000	0.013591	-0.002014
1.970000	0.012197	-0.002136
1.980000	0.012014	-0.000702
1.990000	0.009949	-0.001211
2.000000	0.009155	-0.000275
2.010000	0.008555	0.001302
2.020000	0.006948	0.002472
2.030000	0.005371	0.003296
2.040000	0.004852	0.003174
2.050000	0.004578	0.003296
2.060000	0.004313	0.004466
2.070000	0.004730	0.003499
2.080000	0.005381	0.003316
2.090000	0.004547	0.003204
2.100000	0.005727	0.002543
2.110000	0.007100	0.001892
2.120000	0.007894	0.001007
2.130000	0.008718	-0.000285
2.140000	0.009491	-0.001455
2.150000	0.009023	-0.001353
2.160000	0.009827	-0.001892
2.170000	0.009603	-0.002411
2.180000	0.009847	-0.001811
2.190000	0.009694	-0.000580
2.200000	0.007233	-0.001434
2.210000	0.006907	-0.001546
2.220000	0.004903	0.000468
2.230000	0.005249	-0.000305
2.240000	0.003957	0.001282
2.250000	0.003967	0.002136
2.260000	0.002635	0.001455
2.270000	0.001689	0.001953
2.280000	0.002736	0.001943
2.290000	0.001994	0.001770
2.300000	0.003845	0.001912
2.310000	0.003845	0.000488
2.320000	0.005147	-0.000539
2.330000	0.004883	0.000041
2.340000	0.005910	-0.000376
2.350000	0.006500	-0.001200
2.360000	0.006612	-0.001221
2.370000	0.007507	-0.001414
2.380000	0.007182	-0.001567
2.390000	0.006439	-0.001068
2.400000	0.006358	-0.000966
2.410000	0.005178	-0.000458
2.420000	0.005544	-0.000875
2.430000	0.003916	-0.000529
2.440000	0.003652	0.000234
2.450000	0.002309	0.000875
2.460000	0.002411	0.000173
2.470000	0.001109	0.000885
2.480000	0.001211	0.000559
2.490000	0.001058	0.000559
2.500000	0.001943	-0.000387
2.510000	0.002228	0.000010
2.520000	0.002757	-0.000285
2.530000	0.003011	-0.000498
2.540000	0.003571	-0.001577
2.550000	0.003682	-0.002228
2.560000	0.004354	-0.001851
2.570000	0.004527	-0.001099
2.580000	0.006114	-0.001099
2.590000	0.004079	-0.001322
2.600000	0.004557	-0.000702
2.610000	0.003611	0.000183
2.620000	0.004272	-0.000682
2.630000	0.003540	-0.000041
2.640000	0.003479	0.000173
2.650000	0.002035	0.001200
2.660000	0.002258	0.000641
2.670000	0.002279	0.000509
2.680000	0.001872	0.000631
2.690000	0.002045	0.000814
2.700000	0.002157	0.000509
2.710000	0.002238	-0.000468
2.720000	0.002777	-0.000692
2.730000	0.003876	-0.000509
2.740000	0.003672	-0.000692
2.750000	0.003744	-0.001038
2.760000	0.003042	-0.002431
2.770000	0.003774	-0.000783
2.780000	0.003967	-0.000600
2.790000	0.004669	-0.001882
2.800000	0.004293	-0.000315
2.810000	0.004120	0.000020
2.820000	0.003916	-0.000336
2.830000	0.004110	0.000173
2.840000	0.003611	0.000916
2.850000	0.003092	-0.000193
2.860000	0.003357	0.000600
2.870000	0.003967	0.001027
2.880000	0.002950	0.000336
2.890000	0.002889	0.000539
2.900000	0.003164	-0.000458
2.910000	0.003896	-0.000336
2.920000	0.003174	-0.000580
2.930000	0.004201	-0.000977
2.940000	0.003916	-0.000865
2.950000	0.004588	-0.001200
2.960000	0.005422	-0.000417
2.970000	0.005035	-0.000682
2.980000	0.003774	-0.000844
2.990000	0.004069	-0.001078
3.000000	0.005046	-0.000458
3.010000	0.004771	0.000020
3.020000	0.003957	-0.000570
3.030000	0.004039	0.000000
3.040000	0.004466	0.000926
3.050000	0.003632	0.001088
3.060000	0.003621	0.000539
3.070000	0.003326	0.001221
3.080000	0.003825	0.000793
3.090000	0.004303	-0.000051
3.100000	0.003398	0.000346
3.110000	0.003866	0.000031
3.120000	0.004476	0.000814
3.130000	0.004272	0.000610
3.140000	0.004344	-0.001272
3.150000	0.003693	-0.000193
3.160000	0.003194	-0.000041
3.170000	0.004934	-0.000407
3.180000	0.004964	-0.001170
3.190000	0.005025	0.000610
3.200000	0.004384	0.000142
3.210000	0.005432	0.000081
3.220000	0.004822	0.000682
3.230000	0.004079	-0.000183
3.240000	0.004364	0.000539
3.250000	0.004232	0.000753
3.260000	0.004801	-0.000041
3.270000	0.004761	0.000132
3.280000	0.003621	0.000804
3.290000	0.005269	-0.000193
3.300000	0.004222	-0.001139
3.310000	0.004588	0.001160
3.320000	0.004822	-0.000081
3.330000	0.004201	-0.000285
3.340000	0.004954	-0.000875
3.350000	0.006887	0.000478
3.360000	0.005412	0.000295
3.370000	0.005178	-0.000448
3.380000	0.005900	0.000092
3.390000	0.006002	0.000346
3.400000	0.005493	-0.000031
3.410000	0.004334	0.000061
3.420000	0.004049	-0.000081
3.430000	0.004272	0.000020
3.440000	0.004364	0.000173
3.450000	0.004130	0.000498
3.460000	0.003621	0.000346
3.470000	0.003143	0.000183
3.480000	0.003510	0.000804
3.490000	0.002981	0.001383
3.500000	0.004028	0.000580
3.510000	0.003744	-0.000865
3.520000	0.003784	-0.000987
3.530000	0.005320	-0.000163
3.540000	0.004934	-0.001272
3.550000	0.005076	-0.000305
3.560000	0.005117	-0.000356
3.570000	0.005615	-0.000793
3.580000	0.004395	-0.000692
3.590000	0.005147	-0.000824
3.600000	0.005208	-0.000498
3.610000	0.004588	-0.000275
3.620000	0.004578	0.000397
3.630000	0.004496	0.000153
3.640000	0.003825	0.000102
3.650000	0.004639	0.000468
3.660000	0.004272	0.000732
3.670000	0.003337	0.000682
3.680000	0.003499	-0.000498
3.690000	0.003449	0.000010
3.700000	0.003632	0.000346
3.710000	0.003357	-0.000285
3.720000	0.005015	0.000071
3.730000	0.005015	0.000102
3.740000	0.005361	-0.000315
3.750000	0.005381	-0.000671
3.760000	0.005778	-0.000621
3.770000	0.005320	-0.000254
3.780000	0.004995	-0.000376
3.790000	0.004862	-0.000437
3.800000	0.004730	0.000020
3.810000	0.004944	0.000173
3.820000	0.004415	0.000132
3.830000	0.004527	-0.000142
3.840000	0.004506	0.000214
3.850000	0.002767	0.000804
3.860000	0.003408	0.000936
3.870000	0.004700	0.000844
3.880000	0.004608	-0.000051
3.890000	0.004557	-0.000061
3.900000	0.004140	0.000203
3.910000	0.004201	-0.000448
3.920000	0.004557	0.000081
3.930000	0.004873	-0.000224
3.940000	0.004801	-0.000397
3.950000	0.004812	-0.000834
3.960000	0.004893	-0.000041
3.970000	0.005239	-0.000417
3.980000	0.005381	-0.000112
3.990000	0.004924	-0.000437
4.000000	0.004730	-0.000610
4.010000	0.004913	-0.000264
4.020000	0.004028	-0.000081
4.030000	0.003967	0.000264
4.040000	0.004608	0.000020
4.050000	0.004893	0.000285
4.060000	0.004567	0.000529
4.070000	0.004486	-0.000234
4.080000	0.004059	0.000570
4.090000	0.004445	0.000682
4.100000	0.003845	-0.000102
4.110000	0.005086	-0.000285
4.120000	0.004852	-0.000885
4.130000	0.004476	0.000702
4.140000	0.005361	-0.000366
4.150000	0.004842	-0.000814
4.160000	0.004883	-0.000295
4.170000	0.005188	-0.000529
4.180000	0.005707	-0.000275
4.190000	0.005239	-0.000407
4.200000	0.004873	-0.000346
4.210000	0.005442	-0.000071
4.220000	0.005107	-0.000895
4.230000	0.005422	0.000448
4.240000	0.004690	0.000254
4.250000	0.004456	0.000132
4.260000	0.004730	-0.000366
4.270000	0.004486	0.000397
4.280000	0.004720	0.000254
4.290000	0.004862	0.000061
4.300000	0.004537	-0.000224
4.310000	0.005351	-0.000468
4.320000	0.005046	-0.000122
4.330000	0.005188	-0.000326
4.340000	0.004801	-0.000305
4.350000	0.004801	0.000498
4.360000	0.006093	-0.000509
4.370000	0.005625	0.000051
4.380000	0.004588	-0.000417
4.390000	0.005229	-0.000122
4.400000	0.005229	0.000071
4.410000	0.004547	0.000244
4.420000	0.005137	0.000275
4.430000	0.004791	0.000356
4.440000	0.004293	0.000793
4.450000	0.004629	0.000956
4.460000	0.004374	0.001475
4.470000	0.004374	-0.000041
4.480000	0.005035	0.000417
4.490000	0.004374	-0.000061
4.500000	0.004272	0.000621
4.510000	0.005534	-0.000682
4.520000	0.004506	-0.000305
4.530000	0.005208	-0.000234
4.540000	0.005096	-0.000153
4.550000	0.005198	-0.000315
4.560000	0.004578	-0.000905
4.570000	0.003916	-0.000275
4.580000	0.004639	-0.000712
4.590000	0.004883	-0.000163
4.600000	0.005107	0.000671
4.610000	0.004313	-0.000834
4.620000	0.004405	0.000132
4.630000	0.005269	0.000824
4.640000	0.004293	-0.000041
4.650000	0.004527	0.000295
4.660000	0.004222	-0.000010
4.670000	0.004222	-0.000061
4.680000	0.004344	-0.000509
4.690000	0.004649	0.000326
4.700000	0.004598	0.000092
4.710000	0.003835	-0.000000
4.720000	0.005188	0.000122
4.730000	0.004700	-0.000366
4.740000	0.005564	-0.000529
4.750000	0.004537	-0.000336
4.760000	0.006195	0.000834
4.770000	0.005381	-0.000570
4.780000	0.005646	0.000061
4.790000	0.005656	-0.000214
4.800000	0.004913	-0.000682
4.810000	0.005066	-0.000743
4.820000	0.004079	-0.000173
4.830000	0.004496	0.000020
4.840000	0.004588	0.000427
4.850000	0.004242	0.000682
4.860000	0.004537	0.000793
4.870000	0.004161	0.000519
4.880000	0.004506	-0.000112
4.890000	0.004323	-0.000488
4.900000	0.004496	-0.000295
4.910000	0.004995	-0.000234
4.920000	0.005463	0.000488
4.930000	0.005432	0.000183
4.940000	0.005066	0.000326
4.950000	0.005514	-0.000031
4.960000	0.005361	0.000488
4.970000	0.004730	-0.000549
4.980000	0.004222	-0.000600
4.990000	0.003957	0.000387
5.000000	0.004822	0.001617
5.010000	0.005381	-0.000732
5.020000	0.004862	0.000224
5.030000	0.004842	0.000773
5.040000	0.004445	0.000224
5.050000	0.004588	0.000488
5.060000	0.004964	0.000356
5.070000	0.004944	-0.000712
5.080000	0.004456	-0.000092
5.090000	0.004781	-0.000509
5.100000	0.003764	0.000793
5.110000	0.004425	0.000559
5.120000	0.004842	-0.000549
5.130000	0.005453	0.000071
5.140000	0.004995	0.000183
5.150000	0.005554	0.000285
5.160000	0.005025	-0.000468
5.170000	0.005310	-0.000448
5.180000	0.004771	-0.000305
5.190000	0.005066	-0.000244
5.200000	0.004527	0.000437
5.210000	0.005219	0.000834
5.220000	0.004547	0.000020
5.230000	0.004517	0.000356
5.240000	0.004720	-0.000173
5.250000	0.004842	0.000651
5.260000	0.004710	0.000031
5.270000	0.004191	-0.000254
5.280000	0.004690	0.000529
5.290000	0.004069	-0.000651
5.300000	0.005422	0.000081
5.310000	0.005493	-0.000651
5.320000	0.005310	0.000437
5.330000	0.005096	-0.001007
5.340000	0.004995	-0.000254
5.350000	0.004771	0.000682
5.360000	0.005473	0.000458
5.370000	0.005229	0.000163
5.380000	0.004771	0.000661
5.390000	0.004486	-0.000590
5.400000	0.004659	0.000417
5.410000	0.004344	-0.000132
5.420000	0.004791	-0.000264
5.430000	0.004791	-0.000183
5.440000	0.004791	-0.000264
5.450000	0.005127	-0.000264
5.460000	0.003998	-0.000010
5.470000	0.004211	-0.000946
5.480000	0.004262	0.000041
5.490000	0.004222	0.000793
5.500000	0.004751	-0.000275
5.510000	0.004303	-0.000743
5.520000	0.004954	-0.000590
5.530000	0.004567	0.000061
5.540000	0.004272	-0.000875
5.550000	0.005066	0.000071
5.560000	0.005178	-0.000539
5.570000	0.005219	0.000427
5.580000	0.004771	0.000122
5.590000	0.004761	-0.000519
5.600000	0.004354	-0.000020
5.610000	0.005157	-0.000407
5.620000	0.004171	-0.000468
5.630000	0.004130	-0.000295
5.640000	0.004934	-0.000153
5.650000	0.004547	-0.000346
5.660000	0.004567	0.000387
5.670000	0.004883	0.001211
5.680000	0.004985	0.000458
5.690000	0.004456	0.001251
5.700000	0.004527	0.000387
5.710000	0.004466	0.000539
5.720000	0.004730	0.000732
5.730000	0.003896	-0.001017
5.740000	0.004710	0.000600
5.750000	0.005076	0.000305
5.760000	0.004730	0.000183
5.770000	0.004822	-0.000224
5.780000	0.004557	0.000295
5.790000	0.004700	-0.000112
5.800000	0.004761	-0.000285
5.810000	0.005503	-0.000315
5.820000	0.004761	0.000254
5.830000	0.005381	0.000529
5.840000	0.005809	0.000834
5.850000	0.004384	-0.000793
5.860000	0.004415	-0.000570
5.870000	0.004903	0.000366
5.880000	0.004537	-0.000142
5.890000	0.004791	-0.000346
5.900000	0.005015	-0.000071
5.910000	0.004313	-0.000071
5.920000	0.004415	-0.000651
5.930000	0.005015	-0.000132
5.940000	0.004293	-0.000509
5.950000	0.004761	-0.000763
5.960000	0.004730	-0.001027
5.970000	0.004852	0.000092
5.980000	0.004995	0.000153
5.990000	0.004934	0.000142
6.000000	0.004852	-0.000234
6.010000	0.004822	-0.000010
6.020000	0.005086	-0.000203
6.030000	0.005330	-0.000295
6.040000	0.005778	0.000081
6.050000	0.004374	-0.000061
6.060000	0.005229	-0.000305
6.070000	0.004995	0.000437
6.080000	0.004801	0.000254
6.090000	0.004954	-0.000346
6.100000	0.004985	-0.000010
6.110000	0.004730	-0.000122
6.120000	0.004791	0.000254
6.130000	0.004761	-0.000183
6.140000	0.005239	0.000264
6.150000	0.003855	-0.000519
6.160000	0.004629	-0.000061
6.170000	0.005361	0.000031
6.180000	0.004751	-0.000722
6.190000	0.005188	-0.000132
6.200000	0.004934	-0.000407
6.210000	0.005239	0.000183
6.220000	0.004486	0.000346
6.230000	0.005402	0.000559
6.240000	0.005127	0.000102
6.250000	0.004974	-0.000264
6.260000	0.004598	0.000315
6.270000	0.005503	0.000214
6.280000	0.004028	0.000183
6.290000	0.004313	0.000264
6.300000	0.004740	0.000804
6.310000	0.005035	-0.000621
6.320000	0.005605	-0.000203
6.330000	0.004822	-0.000214
6.340000	0.004903	-0.000488
6.350000	0.005066	-0.000488
6.360000	0.005219	-0.000142
6.370000	0.005391	-0.000122
6.380000	0.004924	0.000621
6.390000	0.004781	-0.000224
6.400000	0.004334	0.000153
6.410000	0.004476	0.000600
6.420000	0.004669	0.000132
6.430000	0.005646	-0.000020
6.440000	0.004364	-0.000458
6.450000	0.003744	0.001078
6.460000	0.004598	-0.000254
6.470000	0.004384	0.000132
6.480000	0.005564	0.000376
6.490000	0.004842	-0.000020
6.500000	0.004130	-0.000142
6.510000	0.005035	0.000142
6.520000	0.005005	0.000203
6.530000	0.005208	-0.000214
6.540000	0.005381	-0.000071
6.550000	0.004730	-0.000000
6.560000	0.005168	0.000031
6.570000	0.004639	-0.000244
6.580000	0.004313	-0.000305
6.590000	0.004903	-0.000163
6.600000	0.004903	-0.000458
6.610000	0.004832	-0.000326
6.620000	0.004557	-0.000417
6.630000	0.004527	0.000346
6.640000	0.004862	0.000417
6.650000	0.005025	-0.000244
6.660000	0.004679	0.000203
6.670000	0.005310	-0.000366
6.680000	0.004985	-0.000031
6.690000	0.004781	-0.000112
6.700000	0.004751	-0.000183
6.710000	0.005035	-0.000163
6.720000	0.004913	0.000356
6.730000	0.004445	0.000010
6.740000	0.005157	0.000315
6.750000	0.004873	-0.000071
6.760000	0.004547	0.000000
6.770000	0.004557	-0.000000
6.780000	0.005259	-0.000051
6.790000	0.005117	0.000519
6.800000	0.004506	-0.000275
6.810000	0.004242	0.000397
6.820000	0.004588	-0.000000
6.830000	0.003693	0.000875
6.840000	0.004903	0.000478
6.850000	0.004364	-0.000051
6.860000	0.004496	-0.000234
6.870000	0.005249	0.000183
6.880000	0.004476	-0.000132
6.890000	0.005208	-0.000305
6.900000	0.004893	-0.000285
6.910000	0.005300	-0.000092
6.920000	0.004730	-0.000305
6.930000	0.005076	0.000732
6.940000	0.005096	0.000519
6.950000	0.003977	0.000356
6.960000	0.005503	-0.000244
6.970000	0.005086	0.000224
6.980000	0.004639	-0.000051
6.990000	0.004985	-0.000153
7.000000	0.004384	-0.000153
7.010000	0.004344	0.000010
7.020000	0.004771	0.000285
7.030000	0.004812	-0.000071
7.040000	0.005524	-0.000153
7.050000	0.004771	0.000264
7.060000	0.003998	0.000142
7.070000	0.004852	-0.000264
7.080000	0.004425	0.000122
7.090000	0.004557	0.000529
7.100000	0.005239	0.000326
7.110000	0.004567	0.000366
7.120000	0.004903	0.000102
7.130000	0.005381	-0.000366
7.140000	0.004893	0.000804
7.150000	0.005178	0.000061
7.160000	0.004781	0.000417
7.170000	0.003947	0.000478
7.180000	0.004242	-0.000254
7.190000	0.004435	0.000041
7.200000	0.004567	-0.000458
7.210000	0.005727	0.000387
7.220000	0.004313	-0.000264
7.230000	0.004903	0.000702
7.240000	0.004578	0.000356
7.250000	0.004262	0.000122
7.260000	0.004384	-0.000203
7.270000	0.004232	-0.000193
7.280000	0.003967	-0.000315
7.290000	0.004669	-0.000804
7.300000	0.004537	0.000295
7.310000	0.004812	0.000346
7.320000	0.005748	0.000753
7.330000	0.005595	0.000956
7.340000	0.004730	-0.000041
7.350000	0.004334	-0.000295
7.360000	0.006114	-0.000468
7.370000	0.004934	-0.000275
7.380000	0.004028	-0.000142
7.390000	0.005493	0.000651
7.400000	0.004842	0.000000
7.410000	0.004588	0.000112
7.420000	0.004893	0.000051
7.430000	0.005585	0.000244
7.440000	0.005412	-0.000346
7.450000	0.004344	0.000926
7.460000	0.004710	-0.000254
7.470000	0.005219	0.000234
7.480000	0.004639	0.000071
7.490000	0.004466	-0.000183
7.500000	0.004374	0.000051
7.510000	0.005219	-0.000549
7.520000	0.005137	-0.000732
7.530000	0.004954	0.000092
7.540000	0.004974	-0.000295
7.550000	0.004700	-0.000763
7.560000	0.004313	-0.000590
7.570000	0.005025	-0.000692
7.580000	0.003784	0.000376
7.590000	0.005229	-0.000305
7.600000	0.004313	0.000193
7.610000	0.005483	-0.000214
7.620000	0.004293	0.000051
7.630000	0.004059	0.000010
7.640000	0.004527	-0.000031
7.650000	0.004710	-0.000651
7.660000	0.004669	0.000153
7.670000	0.004842	0.000000
7.680000	0.004293	-0.000661
7.690000	0.004985	0.000071
7.700000	0.005351	0.000153
7.710000	0.005208	-0.000173
7.720000	0.004659	0.000214
7.730000	0.004608	0.000417
7.740000	0.005188	-0.000763
7.750000	0.005361	-0.000031
7.760000	0.005188	-0.000071
7.770000	0.005076	0.000163
7.780000	0.004812	-0.000051
7.790000	0.004720	-0.000519
7.800000	0.003906	-0.000102
7.810000	0.004761	-0.000875
7.820000	0.004710	-0.000061
7.830000	0.004639	0.000488
7.840000	0.005066	-0.000448
7.850000	0.004690	0.000183
7.860000	0.004954	-0.000244
7.870000	0.005056	0.000010
7.880000	0.005320	-0.000326
7.890000	0.004781	0.000142
7.900000	0.004425	0.000793
7.910000	0.004629	0.000326
7.920000	0.004761	0.000122
7.930000	0.005066	0.000671
7.940000	0.005219	0.000488
7.950000	0.004985	-0.000315
7.960000	0.005290	0.000132
7.970000	0.004934	-0.000437
7.980000	0.004812	-0.000326
7.990000	0.005137	-0.000010
8.000000	0.004974	0.000173
8.010000	0.005188	0.000488
8.020000	0.005300	0.000315
8.030000	0.004944	0.000183
8.040000	0.005534	0.000387
8.050000	0.004537	-0.000102
8.060000	0.005137	0.000549
8.070000	0.005727	0.000122
8.080000	0.004598	0.000519
8.090000	0.004944	-0.000610
8.100000	0.005280	0.000458
8.110000	0.004954	0.000153
8.120000	0.004954	0.000488
8.130000	0.005534	0.000020
8.140000	0.004578	0.000600
8.150000	0.004873	-0.000122
8.160000	0.005249	-0.000112
8.170000	0.004822	-0.000916
8.180000	0.004832	0.000092
8.190000	0.005066	-0.000010
8.200000	0.004395	-0.000346
8.210000	0.005056	0.000214
8.220000	0.005269	-0.000061
8.230000	0.004222	0.000041
8.240000	0.004537	-0.000071
8.250000	0.005178	-0.000112
8.260000	0.005046	-0.000346
8.270000	0.005208	0.000112
8.280000	0.005452	-0.000173
8.290000	0.005880	0.000336
8.300000	0.005107	-0.000539
8.310000	0.005503	-0.000519
8.320000	0.005056	0.000285
8.330000	0.005707	-0.000183
8.340000	0.005269	0.000102
8.350000	0.005127	0.000132
8.360000	0.005280	-0.000214
8.370000	0.005035	0.000244
8.380000	0.004842	0.000142
8.390000	0.004761	-0.000010
8.400000	0.004547	0.000437
8.410000	0.004222	0.000020
8.420000	0.004150	-0.000356
8.430000	0.003744	-0.000295
8.440000	0.004039	0.000020
8.450000	0.005086	0.000183
8.460000	0.004456	-0.000041
8.470000	0.004700	-0.000275
8.480000	0.005157	0.000346
8.490000	0.004262	0.000254
8.500000	0.004527	-0.000417
8.510000	0.004934	-0.000264
8.520000	0.004567	0.000163
8.530000	0.004517	0.000010
8.540000	0.004944	-0.000000
8.550000	0.005147	0.000031
8.560000	0.005503	-0.000153
8.570000	0.004262	-0.000153
8.580000	0.004873	-0.000163
8.590000	0.005341	0.000519
8.600000	0.005107	0.000875
8.610000	0.004822	0.000671
8.620000	0.005269	0.000071
8.630000	0.005768	-0.000031
8.640000	0.004832	0.000610
8.650000	0.005636	-0.000631
8.660000	0.005483	-0.000519
8.670000	0.005585	-0.000102
8.680000	0.005686	-0.000275
8.690000	0.005585	-0.000153
8.700000	0.004832	0.000793
8.710000	0.004822	0.000458
8.720000	0.004801	-0.000417
8.730000	0.004751	0.000183
8.740000	0.005015	0.000417
8.750000	0.004893	-0.000427
8.760000	0.004588	0.000336
8.770000	0.004293	0.000407
8.780000	0.004679	0.000081
8.790000	0.004283	0.000254
8.800000	0.004883	0.000071
8.810000	0.004629	-0.000193
8.820000	0.004445	-0.000804
8.830000	0.003855	-0.000417
8.840000	0.004242	-0.000163
8.850000	0.005076	0.000142
8.860000	0.005503	-0.000020
8.870000	0.005249	-0.000163
8.880000	0.005005	-0.000010
8.890000	0.005178	0.000336
8.900000	0.005310	0.000051
8.910000	0.005544	-0.000071
8.920000	0.004761	0.000000
8.930000	0.005056	-0.000254
8.940000	0.004822	0.000559
8.950000	0.004598	0.000183
8.960000	0.004985	0.000153
8.970000	0.004405	-0.000234
8.980000	0.004425	0.000234
8.990000	0.005514	0.000783
9.000000	0.004527	-0.000356
9.010000	0.004801	0.000112
9.020000	0.004995	-0.000051
9.030000	0.005096	0.000224
9.040000	0.005768	0.000244
9.050000	0.005615	0.000163
9.060000	0.004588	0.000285
9.070000	0.005137	0.000448
9.080000	0.004995	0.000234
9.090000	0.006093	-0.000295
9.100000	0.005391	-0.000356
9.110000	0.005422	0.000010
9.120000	0.005219	-0.000458
9.130000	0.005758	0.000102
9.140000	0.005422	0.000132
9.150000	0.004934	-0.000275
9.160000	0.004608	0.000305
9.170000	0.005361	-0.000346
9.180000	0.005402	0.000885
9.190000	0.004781	-0.000214
9.200000	0.004832	-0.000254
9.210000	0.004150	0.000081
9.220000	0.004710	0.000071
9.230000	0.004130	0.000407
9.240000	0.004161	0.000071
9.250000	0.004567	-0.000193
9.260000	0.004985	-0.000326
9.270000	0.004242	-0.000041
9.280000	0.005330	0.000264
9.290000	0.004435	0.000671
9.300000	0.004557	-0.000387
9.310000	0.004913	0.000173
9.320000	0.004862	0.000478
9.330000	0.004954	0.000000
9.340000	0.003682	-0.000295
9.350000	0.003784	0.000183
9.360000	0.004059	-0.000376
9.370000	0.004344	0.000437
9.380000	0.004639	-0.000356
9.390000	0.004883	0.000498
9.400000	0.004161	0.000081
9.410000	0.004161	0.001027
9.420000	0.004700	-0.000102
9.430000	0.004130	0.000122
9.440000	0.005035	-0.000244
9.450000	0.004120	-0.000010
9.460000	0.004812	0.000529
9.470000	0.003896	-0.000407
9.480000	0.005219	-0.000214
9.490000	0.003896	-0.000041
9.500000	0.005005	-0.000264
9.510000	0.005239	-0.000315
9.520000	0.004954	0.000214
9.530000	0.004374	-0.000559
9.540000	0.005554	0.000549
9.550000	0.005381	-0.001007
9.560000	0.005463	0.000285
9.570000	0.004517	0.000498
9.580000	0.004211	0.000092
9.590000	0.003886	0.000214
9.600000	0.004669	-0.000834
9.610000	0.004720	-0.000356
9.620000	0.004232	-0.000519
9.630000	0.004740	0.000366
9.640000	0.004720	-0.000305
9.650000	0.004191	0.000173
9.660000	0.004100	-0.000295
9.670000	0.005015	0.000458
9.680000	0.004211	0.000732
9.690000	0.005046	0.000153
9.700000	0.005188	-0.000122
9.710000	0.005117	0.000122
9.720000	0.005056	0.000081
9.730000	0.004913	0.000366
9.740000	0.005117	0.000285
9.750000	0.005157	-0.000041
9.760000	0.004700	-0.000142
9.770000	0.005046	-0.000651
9.780000	0.004232	0.000397
9.790000	0.004700	-0.000183
9.800000	0.004618	-0.000132
9.810000	0.004801	-0.000315
9.820000	0.004293	-0.000173
9.830000	0.005859	-0.000092
9.840000	0.003957	0.000081
9.850000	0.004517	-0.000427
9.860000	0.004405	-0.000224
9.870000	0.004852	0.000458
9.880000	0.004293	0.000326
9.890000	0.004608	-0.000468
9.900000	0.005046	-0.000916
9.910000	0.004435	-0.000437
9.920000	0.005249	0.000417
9.930000	0.004985	-0.000295
9.940000	0.004791	-0.000468
9.950000	0.004751	-0.000305
9.960000	0.004995	-0.000580
9.970000	0.005137	-0.000153
9.980000	0.005320	0.000224
9.990000	0.005310	0.000163
10.000000	0.005086	0.000031
