UBB Dec12 2146 Average.d24 - THz Start: 187.69 mm, 1000 points, 10 fs - Pump Probe Time: 1.75 ps, Pump Motor Position: 95.1900 mm, 46 points, -50 fs - Wait: 400 ms -  Averages: 1 - Lock-In 1: 500 mV/mA, 100 ms - Lock-In 2: 500 mV/mA, 100 ms
0.010000	0.005646	0.000071
0.020000	0.005534	-0.000081
0.030000	0.005788	0.000366
0.040000	0.005758	0.000163
0.050000	0.005503	-0.000122
0.060000	0.005239	0.000081
0.070000	0.005371	0.000183
0.080000	0.005341	0.000722
0.090000	0.005229	-0.000020
0.100000	0.005127	-0.000112
0.110000	0.005107	0.000336
0.120000	0.005381	0.000254
0.130000	0.005371	0.000112
0.140000	0.005707	0.000346
0.150000	0.005249	-0.000112
0.160000	0.005686	0.000041
0.170000	0.005503	0.000000
0.180000	0.005371	-0.000285
0.190000	0.005503	-0.000295
0.200000	0.005208	-0.000122
0.210000	0.005341	0.000092
0.220000	0.005137	0.000173
0.230000	0.005656	-0.000031
0.240000	0.005178	-0.000031
0.250000	0.005127	-0.000326
0.260000	0.005025	0.000041
0.270000	0.005290	-0.000132
0.280000	0.005422	-0.000275
0.290000	0.005147	0.000122
0.300000	0.005330	0.000071
0.310000	0.005381	-0.000214
0.320000	0.004873	-0.000081
0.330000	0.005188	0.000366
0.340000	0.004679	0.000529
0.350000	0.005320	0.000488
0.360000	0.004883	0.000498
0.370000	0.005483	-0.000244
0.380000	0.005351	-0.000539
0.390000	0.005544	0.000092
0.400000	0.005127	0.000092
0.410000	0.004954	0.000254
0.420000	0.005300	0.000366
0.430000	0.005076	0.000621
0.440000	0.005168	0.000102
0.450000	0.004903	0.000041
0.460000	0.005320	0.000020
0.470000	0.005208	0.000112
0.480000	0.005219	0.000183
0.490000	0.005178	-0.000000
0.500000	0.005107	0.000254
0.510000	0.005402	-0.000173
0.520000	0.005005	-0.000061
0.530000	0.004700	-0.000346
0.540000	0.005137	0.000010
0.550000	0.005005	0.000010
0.560000	0.004964	0.000000
0.570000	0.004893	-0.000193
0.580000	0.005432	0.000041
0.590000	0.004924	-0.000214
0.600000	0.005341	0.000163
0.610000	0.005341	-0.000203
0.620000	0.004995	0.000783
0.630000	0.004456	-0.000244
0.640000	0.005137	-0.000173
0.650000	0.005575	-0.000234
0.660000	0.005554	-0.000702
0.670000	0.005168	-0.000264
0.680000	0.005046	-0.000132
0.690000	0.005432	-0.000427
0.700000	0.005117	0.000346
0.710000	0.004944	0.000214
0.720000	0.005198	-0.000051
0.730000	0.004679	0.000478
0.740000	0.005015	-0.000214
0.750000	0.005330	0.000173
0.760000	0.005493	-0.000376
0.770000	0.004985	-0.000183
0.780000	0.005208	0.000010
0.790000	0.004720	0.000285
0.800000	0.005219	-0.000020
0.810000	0.004822	0.000010
0.820000	0.005371	0.000356
0.830000	0.004791	-0.000041
0.840000	0.005035	-0.000254
0.850000	0.005005	-0.000173
0.860000	0.004639	-0.000061
0.870000	0.004425	0.000173
0.880000	0.005025	0.000305
0.890000	0.004873	-0.000844
0.900000	0.005229	-0.000305
0.910000	0.004893	-0.000224
0.920000	0.004985	0.000153
0.930000	0.004751	-0.000519
0.940000	0.005096	-0.000590
0.950000	0.004659	0.000051
0.960000	0.004120	0.000203
0.970000	0.005229	-0.000590
0.980000	0.004181	0.000132
0.990000	0.005127	0.000203
1.000000	0.005198	0.000051
1.010000	0.005219	-0.000132
1.020000	0.005422	0.000224
1.030000	0.004496	-0.000214
1.040000	0.004913	-0.000020
1.050000	0.005503	-0.000234
1.060000	0.004964	-0.000346
1.070000	0.005290	-0.000224
1.080000	0.005514	-0.000071
1.090000	0.005280	-0.000112
1.100000	0.005066	0.000224
1.110000	0.004985	-0.000203
1.120000	0.005422	-0.000010
1.130000	0.004954	0.000051
1.140000	0.005239	0.000153
1.150000	0.004506	-0.000468
1.160000	0.005107	-0.000163
1.170000	0.005137	0.000600
1.180000	0.005198	-0.000132
1.190000	0.005788	0.000478
1.200000	0.005514	0.000509
1.210000	0.005219	0.000285
1.220000	0.005341	-0.000397
1.230000	0.004934	-0.000295
1.240000	0.005229	0.000397
1.250000	0.005442	0.000407
1.260000	0.005625	0.000336
1.270000	0.005697	0.000488
1.280000	0.006154	0.000122
1.290000	0.006358	0.000092
1.300000	0.005870	0.000427
1.310000	0.005656	0.000509
1.320000	0.006358	0.000142
1.330000	0.005748	0.000570
1.340000	0.006816	0.000549
1.350000	0.006083	0.000102
1.360000	0.006765	0.000376
1.370000	0.006602	0.000610
1.380000	0.007243	-0.000153
1.390000	0.006551	0.000407
1.400000	0.006582	0.000224
1.410000	0.007111	0.000346
1.420000	0.006419	0.000315
1.430000	0.007507	0.000478
1.440000	0.008626	0.000804
1.450000	0.011149	0.001577
1.460000	0.013886	0.001404
1.470000	0.017049	0.002380
1.480000	0.019531	0.003265
1.490000	0.020121	0.004384
1.500000	0.015859	0.003876
1.510000	0.013265	0.003815
1.520000	0.009684	0.002279
1.530000	0.006561	0.000732
1.540000	0.006032	-0.000275
1.550000	0.008220	-0.000763
1.560000	0.009216	-0.000264
1.570000	0.005737	-0.000600
1.580000	0.000488	0.001160
1.590000	-0.010691	-0.000895
1.600000	-0.022909	-0.003672
1.610000	-0.030701	-0.006836
1.620000	-0.036469	-0.010641
1.630000	-0.033732	-0.010437
1.640000	-0.028656	-0.010813
1.650000	-0.022135	-0.008453
1.660000	-0.014455	-0.005066
1.670000	-0.009349	-0.002004
1.680000	-0.003154	-0.000509
1.690000	-0.000102	0.000743
1.700000	0.002197	0.001760
1.710000	0.004751	0.000468
1.720000	0.006673	-0.000346
1.730000	0.007589	-0.001017
1.740000	0.009043	-0.001333
1.750000	0.010518	-0.001963
1.760000	0.011302	-0.002177
1.770000	0.012105	-0.001790
1.780000	0.012624	-0.002136
1.790000	0.012512	-0.001963
1.800000	0.011719	-0.000641
1.810000	0.011047	0.000173
1.820000	0.010752	0.000651
1.830000	0.010193	0.001841
1.840000	0.009033	0.003113
1.850000	0.009145	0.003845
1.860000	0.008860	0.003957
1.870000	0.008392	0.004140
1.880000	0.008657	0.004150
1.890000	0.008993	0.004639
1.900000	0.008525	0.004211
1.910000	0.009928	0.003764
1.920000	0.009562	0.002655
1.930000	0.010335	0.001719
1.940000	0.011139	0.001027
1.950000	0.011709	0.000285
1.960000	0.011871	-0.000112
1.970000	0.012156	-0.001150
1.980000	0.012319	-0.001027
1.990000	0.011597	-0.001322
2.000000	0.010895	-0.000458
2.010000	0.010641	-0.000346
2.020000	0.009501	-0.000142
2.030000	0.009227	0.001058
2.040000	0.007894	0.001414
2.050000	0.006866	0.002391
2.060000	0.005910	0.002157
2.070000	0.005605	0.002747
2.080000	0.006134	0.002869
2.090000	0.005717	0.003326
2.100000	0.005890	0.002838
2.110000	0.006287	0.002645
2.120000	0.007009	0.002309
2.130000	0.006958	0.001119
2.140000	0.007741	0.000529
2.150000	0.008575	0.000315
2.160000	0.008993	-0.000692
2.170000	0.008647	-0.000753
2.180000	0.009125	-0.000997
2.190000	0.008942	-0.001027
2.200000	0.008545	-0.001099
2.210000	0.007802	-0.000203
2.220000	0.006897	-0.000895
2.230000	0.007202	-0.000132
2.240000	0.005870	-0.000203
2.250000	0.006073	0.000275
2.260000	0.004791	0.000804
2.270000	0.004456	0.001302
2.280000	0.004272	0.001577
2.290000	0.004049	0.001648
2.300000	0.004242	0.001689
2.310000	0.004008	0.001343
2.320000	0.004567	0.001211
2.330000	0.004934	0.000905
2.340000	0.004649	0.000621
2.350000	0.005737	-0.000020
2.360000	0.005015	0.000183
2.370000	0.005249	-0.000000
2.380000	0.006114	-0.000895
2.390000	0.006327	-0.000987
2.400000	0.006083	-0.001526
2.410000	0.006439	-0.001282
2.420000	0.005859	-0.001119
2.430000	0.005320	-0.000651
2.440000	0.004527	-0.000824
2.450000	0.004456	-0.000214
2.460000	0.003469	0.000285
2.470000	0.003082	0.000712
2.480000	0.003326	0.000458
2.490000	0.003042	0.000519
2.500000	0.002431	0.000895
2.510000	0.003052	0.000549
2.520000	0.002563	0.000559
2.530000	0.003408	0.000102
2.540000	0.002726	-0.000214
2.550000	0.003642	-0.000641
2.560000	0.003794	-0.000305
2.570000	0.004873	-0.001109
2.580000	0.004618	-0.001038
2.590000	0.004913	-0.001200
2.600000	0.004852	-0.001241
2.610000	0.004893	-0.000844
2.620000	0.004903	-0.000966
2.630000	0.004486	-0.000356
2.640000	0.004852	-0.000407
2.650000	0.003794	-0.000509
2.660000	0.003479	0.000071
2.670000	0.003001	-0.000376
2.680000	0.003357	0.000804
2.690000	0.002757	-0.000193
2.700000	0.002675	0.000041
2.710000	0.003550	0.000498
2.720000	0.002177	-0.000020
2.730000	0.002370	-0.000193
2.740000	0.002716	-0.000478
2.750000	0.003255	-0.000346
2.760000	0.003611	-0.000702
2.770000	0.003408	-0.000692
2.780000	0.003703	-0.001088
2.790000	0.003967	-0.000793
2.800000	0.004059	-0.000834
2.810000	0.003937	-0.001302
2.820000	0.003530	-0.001017
2.830000	0.004506	-0.000743
2.840000	0.004171	-0.000041
2.850000	0.004374	-0.000336
2.860000	0.004059	-0.000254
2.870000	0.003937	0.000356
2.880000	0.003581	0.000285
2.890000	0.003560	0.000549
2.900000	0.003601	0.000102
2.910000	0.003977	0.000427
2.920000	0.004578	0.000193
2.930000	0.003510	0.000041
2.940000	0.003194	-0.000000
2.950000	0.004181	0.000071
2.960000	0.004130	-0.000203
2.970000	0.004506	-0.000753
2.980000	0.003672	-0.000987
2.990000	0.004272	-0.000895
3.000000	0.004252	-0.000722
3.010000	0.004944	-0.000763
3.020000	0.005066	-0.000844
3.030000	0.004832	-0.000804
3.040000	0.003967	-0.001078
3.050000	0.004710	-0.000020
3.060000	0.004415	-0.000102
3.070000	0.004150	0.000366
3.080000	0.004537	0.000254
3.090000	0.004323	-0.000020
3.100000	0.004476	0.000244
3.110000	0.004832	0.000366
3.120000	0.004374	0.000234
3.130000	0.004781	0.000468
3.140000	0.004873	0.000264
3.150000	0.005127	-0.000539
3.160000	0.004964	-0.000651
3.170000	0.005086	-0.000712
3.180000	0.005442	-0.000529
3.190000	0.004934	-0.000427
3.200000	0.005391	-0.000061
3.210000	0.005137	-0.000854
3.220000	0.005046	-0.000275
3.230000	0.004974	-0.000102
3.240000	0.005035	-0.000163
3.250000	0.004588	-0.000173
3.260000	0.003896	0.000641
3.270000	0.004089	0.001272
3.280000	0.004740	0.000427
3.290000	0.004629	0.001078
3.300000	0.005056	0.000305
3.310000	0.004985	0.000112
3.320000	0.005412	0.000102
3.330000	0.004547	0.000122
3.340000	0.005483	0.000712
3.350000	0.005544	0.000051
3.360000	0.005300	-0.000203
3.370000	0.005219	-0.000356
3.380000	0.005391	-0.000407
3.390000	0.005086	-0.000916
3.400000	0.005239	-0.000275
3.410000	0.004873	0.000203
3.420000	0.005422	0.000142
3.430000	0.005534	-0.000102
3.440000	0.004629	-0.000031
3.450000	0.004039	0.000417
3.460000	0.004425	0.000621
3.470000	0.004527	0.000427
3.480000	0.004812	-0.000142
3.490000	0.005391	0.000376
3.500000	0.004435	0.000407
3.510000	0.004649	0.000214
3.520000	0.005514	0.000570
3.530000	0.004924	0.000275
3.540000	0.004883	-0.000092
3.550000	0.005005	-0.000010
3.560000	0.005514	-0.000214
3.570000	0.005269	-0.000173
3.580000	0.004924	0.000509
3.590000	0.005117	0.000387
3.600000	0.005208	0.000641
3.610000	0.005493	-0.000153
3.620000	0.005788	-0.000071
3.630000	0.005402	-0.000356
3.640000	0.004934	-0.000509
3.650000	0.004822	-0.000814
3.660000	0.004883	0.000010
3.670000	0.004384	-0.000173
3.680000	0.003672	0.000336
3.690000	0.004751	0.000661
3.700000	0.004639	0.000112
3.710000	0.004517	0.000102
3.720000	0.004679	0.000234
3.730000	0.005473	0.000183
3.740000	0.005636	0.000122
3.750000	0.005219	0.000163
3.760000	0.004578	0.000112
3.770000	0.005086	-0.000132
3.780000	0.005646	0.000061
3.790000	0.005269	-0.000468
3.800000	0.005198	-0.000590
3.810000	0.004720	-0.000193
3.820000	0.005351	-0.000264
3.830000	0.004710	-0.000559
3.840000	0.005117	-0.000193
3.850000	0.005127	0.000244
3.860000	0.004740	0.000244
3.870000	0.005300	0.000163
3.880000	0.004384	0.000529
3.890000	0.005290	0.000743
3.900000	0.005005	0.000031
3.910000	0.004740	0.000376
3.920000	0.004506	0.000315
3.930000	0.004496	-0.000468
3.940000	0.005188	0.000336
3.950000	0.004598	-0.000366
3.960000	0.004547	0.000122
3.970000	0.005168	0.000092
3.980000	0.004669	0.000397
3.990000	0.004659	-0.000010
4.000000	0.005453	-0.000234
4.010000	0.005157	-0.000824
4.020000	0.004435	0.000020
4.030000	0.005178	-0.000387
4.040000	0.004730	0.000031
4.050000	0.004425	0.000214
4.060000	0.004517	-0.000142
4.070000	0.004679	0.000549
4.080000	0.004364	0.000081
4.090000	0.004456	-0.000315
4.100000	0.005320	0.000295
4.110000	0.005056	0.000214
4.120000	0.004466	0.000315
4.130000	0.004578	0.000549
4.140000	0.005046	-0.000142
4.150000	0.004791	-0.000458
4.160000	0.004639	-0.000224
4.170000	0.005188	-0.000102
4.180000	0.004954	-0.000519
4.190000	0.004801	-0.000305
4.200000	0.004801	0.000437
4.210000	0.004395	-0.000193
4.220000	0.005076	-0.000214
4.230000	0.004822	0.000305
4.240000	0.004547	0.000061
4.250000	0.004903	-0.000193
4.260000	0.005259	0.000234
4.270000	0.005107	0.000407
4.280000	0.005229	-0.000326
4.290000	0.004812	0.000142
4.300000	0.004842	0.000346
4.310000	0.004791	0.000163
4.320000	0.005005	0.000081
4.330000	0.004537	-0.000407
4.340000	0.004781	0.000244
4.350000	0.005198	-0.000346
4.360000	0.004089	-0.000549
4.370000	0.004700	-0.000041
4.380000	0.005727	0.000326
4.390000	0.005096	-0.000509
4.400000	0.004924	0.000234
4.410000	0.005310	-0.000366
4.420000	0.005086	0.000153
4.430000	0.004730	0.000081
4.440000	0.004537	0.000000
4.450000	0.004456	-0.000397
4.460000	0.004405	0.000437
4.470000	0.005361	0.000264
4.480000	0.005127	-0.000122
4.490000	0.005046	0.000081
4.500000	0.004669	0.000397
4.510000	0.004751	-0.000031
4.520000	0.004537	0.000275
4.530000	0.004222	-0.000610
4.540000	0.004384	-0.000234
4.550000	0.003937	0.000071
4.560000	0.005442	-0.000376
4.570000	0.005341	-0.000488
4.580000	0.005503	-0.000102
4.590000	0.005117	0.000224
4.600000	0.005046	-0.000387
4.610000	0.005147	-0.000173
4.620000	0.004832	0.000092
4.630000	0.004608	-0.000193
4.640000	0.004629	0.000071
4.650000	0.004517	0.000020
4.660000	0.004608	0.000417
4.670000	0.004537	-0.000122
4.680000	0.005127	0.000346
4.690000	0.005137	-0.000112
4.700000	0.004781	0.000437
4.710000	0.005208	0.000244
4.720000	0.005117	0.000427
4.730000	0.005239	0.000183
4.740000	0.005483	0.000285
4.750000	0.005005	-0.000468
4.760000	0.005483	-0.001038
4.770000	0.004883	-0.000356
4.780000	0.004812	0.000153
4.790000	0.005463	-0.000448
4.800000	0.005524	-0.000264
4.810000	0.004974	-0.000112
4.820000	0.005544	0.000122
4.830000	0.004547	-0.000285
4.840000	0.005137	0.000081
4.850000	0.005035	0.000122
4.860000	0.004567	0.000041
4.870000	0.004496	0.000295
4.880000	0.005117	-0.000692
4.890000	0.004211	0.000488
4.900000	0.004415	-0.000254
4.910000	0.004161	0.000346
4.920000	0.004771	0.000366
4.930000	0.004659	-0.000031
4.940000	0.005615	0.000214
4.950000	0.005341	-0.000712
4.960000	0.004893	-0.000193
4.970000	0.005188	-0.000122
4.980000	0.005107	-0.000031
4.990000	0.005157	0.000254
5.000000	0.005015	0.000437
5.010000	0.005127	0.000275
5.020000	0.005188	0.000142
5.030000	0.005015	-0.000031
5.040000	0.005198	-0.000041
5.050000	0.004598	0.000275
5.060000	0.004537	-0.000285
5.070000	0.004679	0.000387
5.080000	0.005056	-0.000743
5.090000	0.005330	-0.000081
5.100000	0.004995	-0.000153
5.110000	0.004995	-0.000193
5.120000	0.005086	0.000031
5.130000	0.004832	-0.000041
5.140000	0.004924	-0.000387
5.150000	0.004903	-0.000336
5.160000	0.005402	-0.000061
5.170000	0.005239	-0.000336
5.180000	0.005127	-0.000549
5.190000	0.005697	-0.000193
5.200000	0.005025	0.000153
5.210000	0.005320	0.000478
5.220000	0.005330	0.000081
5.230000	0.005117	-0.000305
5.240000	0.005137	0.000173
5.250000	0.005290	-0.000244
5.260000	0.005188	0.000010
5.270000	0.005330	-0.000132
5.280000	0.004822	0.000163
5.290000	0.005178	-0.000153
5.300000	0.004761	0.000203
5.310000	0.004700	-0.000112
5.320000	0.005361	-0.000112
5.330000	0.004985	-0.000244
5.340000	0.004710	-0.000163
5.350000	0.004944	0.000397
5.360000	0.005341	0.000570
5.370000	0.005269	-0.000315
5.380000	0.005188	-0.000081
5.390000	0.005208	-0.000234
5.400000	0.005676	0.000539
5.410000	0.004761	0.000112
5.420000	0.004659	-0.000193
5.430000	0.005768	0.000102
5.440000	0.004974	-0.000112
5.450000	0.005361	-0.000437
5.460000	0.005514	0.000092
5.470000	0.005137	0.000559
5.480000	0.005849	0.000458
5.490000	0.004862	0.000061
5.500000	0.004384	-0.000427
5.510000	0.004740	0.000173
5.520000	0.005076	0.000163
5.530000	0.005056	0.000397
5.540000	0.005198	0.000173
5.550000	0.005147	0.000387
5.560000	0.004985	-0.000081
5.570000	0.004862	-0.000163
5.580000	0.005076	-0.000173
5.590000	0.005178	0.000173
5.600000	0.005320	-0.000041
5.610000	0.005127	-0.000488
5.620000	0.004649	-0.000376
5.630000	0.004985	0.000041
5.640000	0.005107	-0.000142
5.650000	0.005178	0.000356
5.660000	0.005147	0.000214
5.670000	0.004985	-0.000132
5.680000	0.004506	0.000081
5.690000	0.005147	0.000081
5.700000	0.004669	0.000397
5.710000	0.004924	-0.000437
5.720000	0.004730	0.000132
5.730000	0.005402	-0.000031
5.740000	0.005341	0.000346
5.750000	0.004924	0.000010
5.760000	0.005473	-0.000020
5.770000	0.005432	0.000173
5.780000	0.004659	-0.000539
5.790000	0.005798	-0.000590
5.800000	0.005524	0.000234
5.810000	0.004883	0.000478
5.820000	0.004822	-0.000366
5.830000	0.005107	-0.000031
5.840000	0.004913	0.000092
5.850000	0.004486	0.000112
5.860000	0.004313	-0.000010
5.870000	0.005096	0.000264
5.880000	0.003947	0.000387
5.890000	0.005056	0.000122
5.900000	0.005524	-0.000051
5.910000	0.005249	-0.000051
5.920000	0.004395	-0.000885
5.930000	0.005239	-0.000142
5.940000	0.005076	-0.000509
5.950000	0.004964	0.000010
5.960000	0.004913	-0.000071
5.970000	0.004486	-0.000203
5.980000	0.005798	-0.000509
5.990000	0.005127	-0.000417
6.000000	0.005157	0.000092
6.010000	0.005249	-0.000102
6.020000	0.004781	0.000153
6.030000	0.005371	0.000163
6.040000	0.004669	-0.000092
6.050000	0.004791	-0.000427
6.060000	0.003937	0.000112
6.070000	0.004812	-0.000102
6.080000	0.004588	0.000407
6.090000	0.005035	-0.000092
6.100000	0.004578	0.000041
6.110000	0.005147	-0.000783
6.120000	0.005127	-0.000743
6.130000	0.005269	0.000000
6.140000	0.004791	-0.000356
6.150000	0.005554	0.000326
6.160000	0.005025	-0.000407
6.170000	0.005219	0.000031
6.180000	0.005473	-0.000397
6.190000	0.004720	-0.000163
6.200000	0.005625	-0.000366
6.210000	0.005239	-0.000132
6.220000	0.005483	0.000142
6.230000	0.005341	0.000132
6.240000	0.005005	-0.000020
6.250000	0.004690	-0.000041
6.260000	0.004476	0.000234
6.270000	0.005147	0.000020
6.280000	0.004486	0.000366
6.290000	0.004761	-0.000163
6.300000	0.004283	-0.000326
6.310000	0.004761	0.000234
6.320000	0.004669	0.000020
6.330000	0.004740	0.000142
6.340000	0.004883	0.000264
6.350000	0.004181	-0.000275
6.360000	0.005117	-0.000071
6.370000	0.005402	-0.000488
6.380000	0.005524	-0.000092
6.390000	0.005219	-0.000142
6.400000	0.005341	0.000132
6.410000	0.005453	0.000061
6.420000	0.005046	-0.000132
6.430000	0.005656	-0.000203
6.440000	0.004679	-0.000264
6.450000	0.004974	-0.000509
6.460000	0.004954	-0.000254
6.470000	0.004832	0.000478
6.480000	0.005188	-0.000376
6.490000	0.004862	0.000376
6.500000	0.004985	-0.000020
6.510000	0.004364	-0.000173
6.520000	0.004771	-0.000061
6.530000	0.005229	0.000163
6.540000	0.005605	-0.000244
6.550000	0.004730	-0.000071
6.560000	0.004801	0.000387
6.570000	0.004730	-0.000102
6.580000	0.004913	0.000397
6.590000	0.004771	-0.000305
6.600000	0.004771	-0.000112
6.610000	0.005046	-0.000600
6.620000	0.004669	-0.000020
6.630000	0.004995	-0.000193
6.640000	0.004974	0.000397
6.650000	0.004985	0.000122
6.660000	0.004679	-0.000051
6.670000	0.004191	0.000641
6.680000	0.003764	0.000427
6.690000	0.004913	0.000509
6.700000	0.004862	0.000488
6.710000	0.005096	-0.000305
6.720000	0.005493	0.000041
6.730000	0.004710	0.000102
6.740000	0.005137	0.000214
6.750000	0.005697	0.000295
6.760000	0.004893	-0.000102
6.770000	0.004486	-0.000051
6.780000	0.004445	0.000102
6.790000	0.004629	-0.000142
6.800000	0.004486	0.000641
6.810000	0.004812	0.000031
6.820000	0.004334	0.000315
6.830000	0.004761	-0.000366
6.840000	0.004822	0.000061
6.850000	0.004751	-0.000092
6.860000	0.005066	0.000254
6.870000	0.004659	0.000102
6.880000	0.004781	0.000092
6.890000	0.005046	0.000020
6.900000	0.004842	0.000203
6.910000	0.004812	0.000102
6.920000	0.004995	0.000071
6.930000	0.004466	-0.000488
6.940000	0.005025	0.000153
6.950000	0.005330	0.000031
6.960000	0.005686	-0.000031
6.970000	0.004812	-0.000031
6.980000	0.005117	-0.000234
6.990000	0.005096	-0.000214
7.000000	0.004801	0.000112
7.010000	0.004812	-0.000092
7.020000	0.005086	0.000112
7.030000	0.005035	-0.000376
7.040000	0.004435	0.000346
7.050000	0.004486	0.000153
7.060000	0.004710	0.000366
7.070000	0.004791	0.000458
7.080000	0.004842	-0.000010
7.090000	0.005239	0.000224
7.100000	0.004669	0.000295
7.110000	0.004995	-0.000244
7.120000	0.005188	-0.000071
7.130000	0.004547	-0.000397
7.140000	0.005168	0.000285
7.150000	0.005585	-0.000092
7.160000	0.004862	0.000041
7.170000	0.005066	0.000214
7.180000	0.005219	0.000010
7.190000	0.005453	-0.000153
7.200000	0.005035	-0.000071
7.210000	0.004934	-0.000437
7.220000	0.005493	0.000214
7.230000	0.005300	0.000498
7.240000	0.005076	0.000102
7.250000	0.004771	0.000061
7.260000	0.005341	0.000193
7.270000	0.004690	0.000315
7.280000	0.004954	-0.000437
7.290000	0.004730	0.000193
7.300000	0.004852	0.000020
7.310000	0.004883	0.000285
7.320000	0.005025	-0.000224
7.330000	0.004710	-0.000112
7.340000	0.005870	0.000061
7.350000	0.005371	-0.000315
7.360000	0.004354	0.000397
7.370000	0.004557	0.000315
7.380000	0.004954	-0.000814
7.390000	0.004323	-0.000427
7.400000	0.005066	0.000142
7.410000	0.004283	-0.000061
7.420000	0.004283	0.000102
7.430000	0.005259	0.000458
7.440000	0.005005	0.000264
7.450000	0.005371	-0.000153
7.460000	0.004730	0.000051
7.470000	0.005056	0.000041
7.480000	0.004812	-0.000071
7.490000	0.004629	-0.000010
7.500000	0.005422	-0.000214
7.510000	0.004344	0.000224
7.520000	0.004710	0.000041
7.530000	0.005483	0.000132
7.540000	0.004944	-0.000132
7.550000	0.005076	-0.000041
7.560000	0.004985	0.000020
7.570000	0.005503	0.000814
7.580000	0.004903	0.000264
7.590000	0.005290	0.000214
7.600000	0.005056	0.000071
7.610000	0.004862	0.000458
7.620000	0.004374	0.000254
7.630000	0.004842	0.000153
7.640000	0.005625	-0.000224
7.650000	0.005056	0.000183
7.660000	0.005015	0.000031
7.670000	0.005046	-0.000315
7.680000	0.004323	0.000122
7.690000	0.005229	0.000397
7.700000	0.005005	0.000041
7.710000	0.004893	-0.000244
7.720000	0.004496	-0.000020
7.730000	0.004862	-0.000010
7.740000	0.005198	0.000132
7.750000	0.004791	0.000417
7.760000	0.005554	-0.000244
7.770000	0.005229	0.000264
7.780000	0.005127	0.000285
7.790000	0.004761	-0.000142
7.800000	0.005005	0.000153
7.810000	0.004852	-0.000071
7.820000	0.005544	0.000051
7.830000	0.004934	0.000142
7.840000	0.005127	-0.000041
7.850000	0.005117	-0.000092
7.860000	0.005127	-0.000376
7.870000	0.005463	0.000488
7.880000	0.005320	-0.000346
7.890000	0.004598	0.000173
7.900000	0.004476	-0.000061
7.910000	0.004649	-0.000031
7.920000	0.004527	0.000183
7.930000	0.004801	0.000132
7.940000	0.004537	-0.000081
7.950000	0.005280	0.000102
7.960000	0.005330	0.000112
7.970000	0.005178	0.000183
7.980000	0.005219	-0.000295
7.990000	0.005320	0.000214
8.000000	0.005025	-0.000142
8.010000	0.004690	-0.000580
8.020000	0.004934	-0.000081
8.030000	0.005025	-0.000397
8.040000	0.005035	0.000051
8.050000	0.004944	0.000112
8.060000	0.004659	-0.000041
8.070000	0.005320	0.000224
8.080000	0.005035	-0.000326
8.090000	0.004669	-0.000295
8.100000	0.004812	0.000234
8.110000	0.004384	0.000539
8.120000	0.005422	-0.000102
8.130000	0.004700	-0.000061
8.140000	0.005188	0.000244
8.150000	0.005147	0.000051
8.160000	0.005168	0.000071
8.170000	0.005534	0.000010
8.180000	0.004954	-0.000214
8.190000	0.004486	-0.000051
8.200000	0.004873	0.000468
8.210000	0.005056	-0.000387
8.220000	0.005035	-0.000173
8.230000	0.004883	0.000346
8.240000	0.005290	-0.000071
8.250000	0.004506	-0.000376
8.260000	0.004791	0.000559
8.270000	0.004222	-0.000580
8.280000	0.003835	-0.000336
8.290000	0.005778	0.000092
8.300000	0.004771	-0.000112
8.310000	0.005117	0.000163
8.320000	0.005768	-0.000214
8.330000	0.004700	-0.000112
8.340000	0.005127	-0.000173
8.350000	0.004944	0.000092
8.360000	0.004781	-0.000061
8.370000	0.005391	-0.000224
8.380000	0.004720	0.000020
8.390000	0.004842	-0.000224
8.400000	0.004588	0.000183
8.410000	0.004862	0.000682
8.420000	0.004944	0.000376
8.430000	0.004669	0.000254
8.440000	0.004679	-0.000173
8.450000	0.004283	0.000254
8.460000	0.004822	-0.000102
8.470000	0.004852	0.000142
8.480000	0.004669	-0.000366
8.490000	0.005605	0.000407
8.500000	0.005473	0.000122
8.510000	0.005422	-0.000031
8.520000	0.005320	0.000295
8.530000	0.005422	-0.000203
8.540000	0.005483	-0.000203
8.550000	0.004995	0.000112
8.560000	0.005046	0.000631
8.570000	0.005086	0.000010
8.580000	0.004883	-0.000559
8.590000	0.004771	0.000254
8.600000	0.004049	-0.000203
8.610000	0.005219	0.000336
8.620000	0.005473	0.000417
8.630000	0.004445	-0.000610
8.640000	0.005147	0.000071
8.650000	0.004690	-0.000285
8.660000	0.005249	-0.000071
8.670000	0.005381	-0.000122
8.680000	0.004679	-0.000173
8.690000	0.004862	-0.000468
8.700000	0.004659	0.000000
8.710000	0.004751	-0.000020
8.720000	0.004842	0.000173
8.730000	0.005096	0.000437
8.740000	0.005798	0.000173
8.750000	0.004801	-0.000224
8.760000	0.004873	-0.000010
8.770000	0.005117	0.000061
8.780000	0.004181	0.000387
8.790000	0.005219	0.000214
8.800000	0.005493	-0.000214
8.810000	0.005107	-0.000122
8.820000	0.004903	0.000356
8.830000	0.004944	0.000092
8.840000	0.005544	-0.000041
8.850000	0.005656	0.000712
8.860000	0.005402	-0.000529
8.870000	0.005524	0.000214
8.880000	0.005666	0.000834
8.890000	0.005564	0.000173
8.900000	0.004995	-0.000153
8.910000	0.004506	-0.000112
8.920000	0.005290	-0.000061
8.930000	0.005178	-0.000203
8.940000	0.004883	-0.000071
8.950000	0.005046	0.000000
8.960000	0.005259	-0.000092
8.970000	0.005320	0.000285
8.980000	0.005086	-0.000356
8.990000	0.005351	0.000275
9.000000	0.004954	-0.000763
9.010000	0.004710	-0.000020
9.020000	0.005300	-0.000051
9.030000	0.005107	0.000153
9.040000	0.005442	-0.000244
9.050000	0.005524	0.000305
9.060000	0.005229	0.000102
9.070000	0.005452	-0.000122
9.080000	0.004822	-0.000295
9.090000	0.005442	0.000092
9.100000	0.005269	-0.000031
9.110000	0.005351	0.000346
9.120000	0.005554	0.000295
9.130000	0.004974	0.000081
9.140000	0.005280	0.000051
9.150000	0.005422	-0.000041
9.160000	0.005290	-0.000376
9.170000	0.004862	-0.000112
9.180000	0.005646	-0.000173
9.190000	0.005198	-0.000102
9.200000	0.005239	-0.000020
9.210000	0.005330	-0.000142
9.220000	0.005147	0.000621
9.230000	0.005259	0.000193
9.240000	0.005493	0.000020
9.250000	0.005432	-0.000092
9.260000	0.005035	0.000417
9.270000	0.005330	-0.000041
9.280000	0.005066	-0.000020
9.290000	0.005351	0.000193
9.300000	0.005290	-0.000376
9.310000	0.004903	-0.000244
9.320000	0.005534	0.000102
9.330000	0.004862	0.000132
9.340000	0.004832	0.000234
9.350000	0.004801	-0.000081
9.360000	0.004974	-0.000458
9.370000	0.004822	-0.000326
9.380000	0.004974	0.000173
9.390000	0.004924	0.000407
9.400000	0.005371	-0.000264
9.410000	0.004862	0.000071
9.420000	0.005015	-0.000122
9.430000	0.005300	0.000356
9.440000	0.005046	-0.000010
9.450000	0.004924	0.000183
9.460000	0.004639	-0.000173
9.470000	0.004913	-0.000458
9.480000	0.005198	0.000173
9.490000	0.005381	-0.000081
9.500000	0.005371	0.000010
9.510000	0.004974	-0.000437
9.520000	0.004527	-0.000366
9.530000	0.004293	-0.000549
9.540000	0.005361	0.000122
9.550000	0.005239	0.000031
9.560000	0.005330	-0.000071
9.570000	0.004832	0.000315
9.580000	0.005005	-0.000071
9.590000	0.005229	-0.000163
9.600000	0.005117	-0.000010
9.610000	0.005229	0.000387
9.620000	0.004812	0.000041
9.630000	0.005442	-0.000061
9.640000	0.004771	0.000153
9.650000	0.005056	-0.000081
9.660000	0.004812	-0.000305
9.670000	0.004740	-0.000010
9.680000	0.004985	-0.000041
9.690000	0.004771	0.000448
9.700000	0.004506	0.000519
9.710000	0.004405	-0.000356
9.720000	0.004639	0.000092
9.730000	0.005229	0.000081
9.740000	0.005096	-0.000163
9.750000	0.005086	-0.000173
9.760000	0.004964	-0.000234
9.770000	0.004781	0.000163
9.780000	0.005391	-0.000336
9.790000	0.005188	0.000092
9.800000	0.004934	-0.000051
9.810000	0.005931	-0.000183
9.820000	0.005168	-0.000071
9.830000	0.005157	-0.000000
9.840000	0.005096	-0.000112
9.850000	0.005595	-0.000061
9.860000	0.005249	-0.000081
9.870000	0.004751	0.000051
9.880000	0.004679	0.000793
9.890000	0.005310	-0.000183
9.900000	0.005239	-0.000214
9.910000	0.005157	-0.000142
9.920000	0.005554	-0.000203
9.930000	0.005269	0.000081
9.940000	0.005361	-0.000275
9.950000	0.005198	-0.000305
9.960000	0.005157	0.000356
9.970000	0.005615	0.000163
9.980000	0.005829	-0.000102
9.990000	0.005056	-0.000051
10.000000	0.005015	-0.000590
