UBB Dec12 1808 Average.d24 - THz Start: 187.69 mm, 1000 points, 10 fs - Pump Probe Time: 0.65 ps, Pump Motor Position: 95.3550 mm, 46 points, -50 fs - Wait: 400 ms -  Averages: 1 - Lock-In 1: 500 mV/mA, 100 ms - Lock-In 2: 500 mV/mA, 100 ms
0.010000	0.003082	0.000132
0.020000	0.003042	0.000285
0.030000	0.003601	0.000661
0.040000	0.003744	-0.000224
0.050000	0.003652	0.000580
0.060000	0.003408	-0.000529
0.070000	0.003489	-0.000051
0.080000	0.003693	-0.000417
0.090000	0.004262	-0.000122
0.100000	0.004486	0.000071
0.110000	0.004588	0.000031
0.120000	0.003835	0.000336
0.130000	0.003927	0.000356
0.140000	0.004354	-0.001058
0.150000	0.003988	-0.000214
0.160000	0.005117	-0.000366
0.170000	0.004171	0.000285
0.180000	0.004710	-0.000061
0.190000	0.004069	-0.000244
0.200000	0.003601	-0.000112
0.210000	0.004211	0.000621
0.220000	0.004364	-0.000254
0.230000	0.003469	0.000163
0.240000	0.004100	-0.000051
0.250000	0.004049	0.000112
0.260000	0.003357	0.000153
0.270000	0.003113	0.000946
0.280000	0.004222	-0.000031
0.290000	0.003988	-0.000102
0.300000	0.004252	0.000153
0.310000	0.004740	0.000621
0.320000	0.003754	0.000590
0.330000	0.004232	0.000081
0.340000	0.005198	0.000437
0.350000	0.003855	-0.000621
0.360000	0.004954	-0.000356
0.370000	0.004211	0.000041
0.380000	0.003459	-0.000132
0.390000	0.004751	-0.000275
0.400000	0.003754	-0.000122
0.410000	0.004374	0.000753
0.420000	0.004466	0.000122
0.430000	0.003540	-0.000712
0.440000	0.004161	0.000702
0.450000	0.004913	0.000031
0.460000	0.004150	0.000153
0.470000	0.003693	-0.000000
0.480000	0.004578	-0.000376
0.490000	0.004710	0.000295
0.500000	0.004354	-0.000722
0.510000	0.004862	-0.000387
0.520000	0.004049	0.000010
0.530000	0.003438	-0.000183
0.540000	0.004191	-0.000031
0.550000	0.003998	0.000132
0.560000	0.004262	-0.000244
0.570000	0.004456	0.000071
0.580000	0.003845	0.000224
0.590000	0.004201	0.000051
0.600000	0.004283	-0.001038
0.610000	0.004059	-0.000509
0.620000	0.004425	-0.000722
0.630000	0.004283	0.000336
0.640000	0.002808	-0.000488
0.650000	0.003916	0.000081
0.660000	0.004222	0.000559
0.670000	0.004140	-0.000102
0.680000	0.003428	0.000631
0.690000	0.004201	-0.000183
0.700000	0.004374	0.000061
0.710000	0.004262	-0.000051
0.720000	0.005310	-0.000061
0.730000	0.004140	-0.000214
0.740000	0.004283	0.000000
0.750000	0.004161	-0.000071
0.760000	0.004334	-0.000468
0.770000	0.004049	-0.000509
0.780000	0.004323	-0.000000
0.790000	0.004089	-0.000031
0.800000	0.004334	-0.000193
0.810000	0.004100	-0.000346
0.820000	0.004181	-0.000326
0.830000	0.004608	0.000285
0.840000	0.003225	-0.000895
0.850000	0.004720	0.000468
0.860000	0.003927	0.000295
0.870000	0.004354	-0.000173
0.880000	0.004272	-0.000234
0.890000	0.003560	-0.000285
0.900000	0.004039	0.000122
0.910000	0.003581	-0.000356
0.920000	0.004069	-0.000061
0.930000	0.003886	-0.000092
0.940000	0.004354	-0.000142
0.950000	0.004222	0.000203
0.960000	0.004669	0.000092
0.970000	0.003835	-0.000122
0.980000	0.004191	-0.000203
0.990000	0.004466	-0.000142
1.000000	0.004079	0.000254
1.010000	0.003398	-0.000010
1.020000	0.003794	-0.000163
1.030000	0.004089	-0.000132
1.040000	0.003581	0.000020
1.050000	0.004527	0.000376
1.060000	0.004954	0.000722
1.070000	0.004801	-0.000346
1.080000	0.004323	0.000122
1.090000	0.004018	0.000448
1.100000	0.005483	0.000844
1.110000	0.004801	0.000407
1.120000	0.004720	-0.000854
1.130000	0.004211	-0.000712
1.140000	0.004211	-0.000326
1.150000	0.004557	0.000936
1.160000	0.003947	-0.000254
1.170000	0.004649	0.000092
1.180000	0.004924	0.000142
1.190000	0.004211	0.000743
1.200000	0.004964	0.000437
1.210000	0.004842	0.000549
1.220000	0.005341	0.000132
1.230000	0.005219	0.001048
1.240000	0.004832	-0.000142
1.250000	0.005056	0.000804
1.260000	0.005239	0.000417
1.270000	0.005168	0.000315
1.280000	0.005056	0.000224
1.290000	0.006002	-0.000743
1.300000	0.006378	0.000244
1.310000	0.007782	0.000793
1.320000	0.009542	0.001160
1.330000	0.013407	0.000844
1.340000	0.016846	0.001933
1.350000	0.019328	0.003011
1.360000	0.018850	0.004283
1.370000	0.015666	0.004506
1.380000	0.007874	0.003845
1.390000	-0.003784	0.001658
1.400000	-0.011709	-0.003052
1.410000	-0.017182	-0.005025
1.420000	-0.017426	-0.007813
1.430000	-0.014933	-0.007060
1.440000	-0.010681	-0.005849
1.450000	-0.006215	-0.003276
1.460000	-0.002655	-0.001119
1.470000	0.000285	0.001333
1.480000	0.002818	0.001862
1.490000	0.005575	0.002614
1.500000	0.008748	0.002899
1.510000	0.014272	0.002604
1.520000	0.018758	0.003835
1.530000	0.023733	0.003886
1.540000	0.026133	0.004791
1.550000	0.026316	0.006083
1.560000	0.019379	0.004751
1.570000	0.008769	0.002706
1.580000	0.002085	-0.000570
1.590000	-0.010529	-0.006378
1.600000	-0.019664	-0.008718
1.610000	-0.022797	-0.008616
1.620000	-0.025136	-0.009176
1.630000	-0.022593	-0.007446
1.640000	-0.020569	-0.006409
1.650000	-0.015452	-0.004344
1.660000	-0.010010	-0.001190
1.670000	-0.004242	0.002197
1.680000	-0.001190	0.003377
1.690000	0.000478	0.004039
1.700000	0.002268	0.004069
1.710000	0.004415	0.004161
1.720000	0.005432	0.002157
1.730000	0.006968	0.000275
1.740000	0.008860	-0.000142
1.750000	0.010366	-0.001078
1.760000	0.011292	-0.001139
1.770000	0.012217	-0.002706
1.780000	0.013255	-0.003326
1.790000	0.013438	-0.003072
1.800000	0.012909	-0.002869
1.810000	0.012472	-0.001912
1.820000	0.011108	-0.001200
1.830000	0.009237	-0.000275
1.840000	0.008443	0.000854
1.850000	0.007284	0.001485
1.860000	0.005870	0.002106
1.870000	0.005137	0.003245
1.880000	0.004883	0.004130
1.890000	0.005076	0.003835
1.900000	0.005219	0.004557
1.910000	0.005229	0.003204
1.920000	0.007233	0.003103
1.930000	0.007497	0.002065
1.940000	0.008260	0.001709
1.950000	0.010549	0.000661
1.960000	0.011342	-0.000519
1.970000	0.011770	-0.001109
1.980000	0.011993	-0.001465
1.990000	0.011607	-0.002004
2.000000	0.011698	-0.002126
2.010000	0.010793	-0.001912
2.020000	0.009298	-0.001241
2.030000	0.008586	-0.000498
2.040000	0.007131	-0.000326
2.050000	0.005737	0.000712
2.060000	0.004598	0.002167
2.070000	0.003459	0.001821
2.080000	0.002146	0.002085
2.090000	0.002238	0.003387
2.100000	0.002207	0.002584
2.110000	0.002991	0.003754
2.120000	0.003957	0.003082
2.130000	0.004395	0.002665
2.140000	0.005453	0.000336
2.150000	0.006907	0.000539
2.160000	0.007782	-0.000000
2.170000	0.008504	-0.000346
2.180000	0.008942	-0.000732
2.190000	0.009155	-0.001943
2.200000	0.008769	-0.001953
2.210000	0.008453	-0.001912
2.220000	0.007711	-0.001678
2.230000	0.006602	-0.001190
2.240000	0.006012	-0.000173
2.250000	0.004537	0.000397
2.260000	0.003713	0.000783
2.270000	0.002706	0.000763
2.280000	0.001994	0.001150
2.290000	0.001790	0.001302
2.300000	0.001902	0.001851
2.310000	0.001709	0.001272
2.320000	0.001658	0.000661
2.330000	0.001841	0.002218
2.340000	0.001577	0.001272
2.350000	0.004130	0.000559
2.360000	0.005259	0.000478
2.370000	0.005686	-0.000468
2.380000	0.005890	-0.000997
2.390000	0.006561	-0.001445
2.400000	0.006622	-0.001200
2.410000	0.006215	-0.001363
2.420000	0.005961	-0.001475
2.430000	0.005198	-0.001292
2.440000	0.005219	-0.000814
2.450000	0.004039	-0.000142
2.460000	0.002736	-0.000437
2.470000	0.002553	0.000041
2.480000	0.001923	0.000458
2.490000	0.001302	0.001292
2.500000	0.001994	0.000875
2.510000	0.001984	0.000570
2.520000	0.001516	0.001587
2.530000	0.001597	0.001699
2.540000	0.002452	0.000183
2.550000	0.003225	0.000427
2.560000	0.003652	-0.000936
2.570000	0.004364	-0.000987
2.580000	0.004618	-0.001383
2.590000	0.004761	-0.001414
2.600000	0.005015	-0.001424
2.610000	0.005280	-0.000987
2.620000	0.004954	-0.001322
2.630000	0.004364	-0.000712
2.640000	0.003916	-0.001221
2.650000	0.004222	-0.000610
2.660000	0.002920	0.000417
2.670000	0.002950	0.000193
2.680000	0.002940	0.000000
2.690000	0.002085	0.000824
2.700000	0.001709	-0.000214
2.710000	0.002085	0.001729
2.720000	0.001851	0.000031
2.730000	0.002187	0.000183
2.740000	0.002268	0.000865
2.750000	0.003357	-0.000498
2.760000	0.003377	-0.001211
2.770000	0.003998	-0.001495
2.780000	0.004089	-0.000610
2.790000	0.004629	-0.001221
2.800000	0.004547	-0.000722
2.810000	0.004547	-0.001638
2.820000	0.003520	-0.000397
2.830000	0.004161	-0.000641
2.840000	0.003682	-0.000397
2.850000	0.003713	-0.000539
2.860000	0.004181	0.000254
2.870000	0.003672	0.000071
2.880000	0.002370	-0.000102
2.890000	0.002981	-0.000366
2.900000	0.002655	0.000732
2.910000	0.002502	0.000173
2.920000	0.003886	0.000020
2.930000	0.003560	0.000132
2.940000	0.003571	0.000010
2.950000	0.004140	-0.000336
2.960000	0.004272	-0.000814
2.970000	0.003967	-0.000326
2.980000	0.004801	-0.001261
2.990000	0.004679	-0.001363
3.000000	0.005249	-0.000844
3.010000	0.005137	-0.000743
3.020000	0.004527	-0.001017
3.030000	0.004812	-0.000712
3.040000	0.004171	-0.000885
3.050000	0.003744	0.000020
3.060000	0.003550	0.000153
3.070000	0.003947	0.000234
3.080000	0.004089	0.000326
3.090000	0.003530	0.000743
3.100000	0.003672	0.000519
3.110000	0.003621	0.000305
3.120000	0.003977	0.001068
3.130000	0.004272	0.000387
3.140000	0.004720	-0.000153
3.150000	0.005117	-0.000600
3.160000	0.004801	-0.000600
3.170000	0.005422	-0.000722
3.180000	0.005147	-0.000712
3.190000	0.005432	-0.000865
3.200000	0.005778	-0.000743
3.210000	0.005269	-0.000570
3.220000	0.004334	-0.001200
3.230000	0.004862	-0.000916
3.240000	0.004527	-0.000214
3.250000	0.004323	0.000407
3.260000	0.003906	0.000183
3.270000	0.003499	-0.000081
3.280000	0.004456	0.000549
3.290000	0.003591	0.000753
3.300000	0.003418	0.001119
3.310000	0.004974	0.000081
3.320000	0.004415	0.000397
3.330000	0.004690	0.000366
3.340000	0.004598	0.000529
3.350000	0.005117	-0.000041
3.360000	0.005147	-0.000031
3.370000	0.005178	-0.000336
3.380000	0.005707	-0.000600
3.390000	0.004964	-0.000661
3.400000	0.005168	-0.000763
3.410000	0.005656	-0.000092
3.420000	0.005605	-0.001017
3.430000	0.005127	-0.000387
3.440000	0.004751	-0.000031
3.450000	0.004415	-0.000295
3.460000	0.004344	-0.000031
3.470000	0.003133	0.000193
3.480000	0.003154	0.000549
3.490000	0.003591	0.000427
3.500000	0.003774	0.000132
3.510000	0.003988	-0.000183
3.520000	0.004557	0.000193
3.530000	0.004659	-0.000071
3.540000	0.004618	0.000397
3.550000	0.005269	-0.000529
3.560000	0.005351	0.000081
3.570000	0.005422	0.000153
3.580000	0.004924	-0.000183
3.590000	0.005107	-0.000590
3.600000	0.005442	-0.001017
3.610000	0.005351	-0.000275
3.620000	0.004822	-0.000173
3.630000	0.004445	-0.000254
3.640000	0.003835	-0.000366
3.650000	0.004120	0.000020
3.660000	0.003886	0.000020
3.670000	0.004161	0.000346
3.680000	0.003957	-0.000102
3.690000	0.004008	0.000519
3.700000	0.003937	0.000773
3.710000	0.004272	0.000142
3.720000	0.004445	0.000254
3.730000	0.004557	0.000214
3.740000	0.004456	-0.000020
3.750000	0.005046	-0.000031
3.760000	0.004639	-0.000468
3.770000	0.005035	-0.000346
3.780000	0.004944	-0.000315
3.790000	0.005025	-0.000844
3.800000	0.004985	-0.000112
3.810000	0.004100	-0.000702
3.820000	0.004496	-0.000071
3.830000	0.004293	-0.001078
3.840000	0.004862	-0.000651
3.850000	0.003744	-0.000163
3.860000	0.003672	-0.000448
3.870000	0.004222	0.000295
3.880000	0.004527	0.000102
3.890000	0.003977	0.000397
3.900000	0.003713	0.000895
3.910000	0.003937	0.000437
3.920000	0.004181	-0.000264
3.930000	0.004547	0.000407
3.940000	0.004018	0.000539
3.950000	0.005086	-0.000549
3.960000	0.004832	-0.000346
3.970000	0.004985	-0.000203
3.980000	0.005157	-0.000214
3.990000	0.004944	-0.000254
4.000000	0.004445	0.000041
4.010000	0.005493	-0.000346
4.020000	0.004781	-0.000132
4.030000	0.004730	0.000865
4.040000	0.004598	0.000224
4.050000	0.004283	0.000041
4.060000	0.004303	0.000224
4.070000	0.004100	0.000010
4.080000	0.004171	0.000417
4.090000	0.003642	0.000468
4.100000	0.004262	0.000092
4.110000	0.004425	0.000020
4.120000	0.003815	0.000071
4.130000	0.004598	0.000061
4.140000	0.004679	0.000366
4.150000	0.004283	-0.000295
4.160000	0.005269	0.000488
4.170000	0.004049	-0.000549
4.180000	0.004954	-0.000895
4.190000	0.003438	-0.000977
4.200000	0.004842	-0.000102
4.210000	0.005503	0.000092
4.220000	0.004476	0.000163
4.230000	0.004018	-0.000559
4.240000	0.004181	0.000203
4.250000	0.004232	0.000580
4.260000	0.004334	0.000977
4.270000	0.003916	0.000010
4.280000	0.003906	0.000549
4.290000	0.004557	0.000478
4.300000	0.003367	0.000142
4.310000	0.004150	0.000387
4.320000	0.004252	0.001088
4.330000	0.004222	0.000061
4.340000	0.004262	0.000041
4.350000	0.003621	-0.000112
4.360000	0.005239	-0.000559
4.370000	0.004293	-0.000621
4.380000	0.004272	-0.000804
4.390000	0.005361	-0.000295
4.400000	0.003418	-0.000661
4.410000	0.004232	0.000163
4.420000	0.003866	0.000112
4.430000	0.004028	0.000376
4.440000	0.004435	-0.000692
4.450000	0.004486	0.000214
4.460000	0.004527	0.000732
4.470000	0.004334	-0.000122
4.480000	0.005056	0.000132
4.490000	0.004506	0.000234
4.500000	0.004028	0.000254
4.510000	0.004690	0.000488
4.520000	0.004862	0.000488
4.530000	0.004588	-0.000793
4.540000	0.004537	0.000000
4.550000	0.005025	-0.000468
4.560000	0.005656	-0.000366
4.570000	0.005117	-0.000173
4.580000	0.004181	-0.000275
4.590000	0.003977	-0.000468
4.600000	0.004496	0.000214
4.610000	0.004272	-0.000041
4.620000	0.004395	-0.000081
4.630000	0.004262	-0.000081
4.640000	0.004384	-0.000326
4.650000	0.003845	0.000193
4.660000	0.004283	0.000468
4.670000	0.004140	0.000214
4.680000	0.004283	0.000559
4.690000	0.004211	0.000315
4.700000	0.003662	-0.000183
4.710000	0.004354	0.000020
4.720000	0.004629	0.000600
4.730000	0.004313	0.000163
4.740000	0.003184	-0.001048
4.750000	0.003998	-0.000203
4.760000	0.003916	-0.000163
4.770000	0.004211	0.000488
4.780000	0.004252	-0.000122
4.790000	0.004567	-0.000234
4.800000	0.004781	0.000020
4.810000	0.004435	-0.000183
4.820000	0.004557	-0.000509
4.830000	0.004395	0.000112
4.840000	0.004506	-0.000203
4.850000	0.004700	0.000315
4.860000	0.004669	0.000071
4.870000	0.004466	0.000376
4.880000	0.003794	0.000092
4.890000	0.004242	-0.000020
4.900000	0.004557	0.000163
4.910000	0.005157	0.000539
4.920000	0.004812	0.000387
4.930000	0.004161	0.000071
4.940000	0.004232	-0.000183
4.950000	0.004079	-0.000244
4.960000	0.004161	-0.000600
4.970000	0.004873	0.000051
4.980000	0.004730	-0.000153
4.990000	0.004944	-0.000315
5.000000	0.004974	-0.000153
5.010000	0.004903	-0.000275
5.020000	0.004344	-0.000671
5.030000	0.004812	0.000570
5.040000	0.004435	0.000214
5.050000	0.004629	-0.000224
5.060000	0.004262	-0.000163
5.070000	0.003896	-0.000173
5.080000	0.004049	-0.000051
5.090000	0.004496	0.000020
5.100000	0.004049	0.000092
5.110000	0.004761	-0.000132
5.120000	0.005198	0.000600
5.130000	0.004578	0.000346
5.140000	0.004710	-0.000061
5.150000	0.004425	-0.000112
5.160000	0.004740	0.000092
5.170000	0.005076	0.000203
5.180000	0.005066	-0.000102
5.190000	0.005320	0.000153
5.200000	0.004985	-0.000336
5.210000	0.004283	0.000244
5.220000	0.004618	0.000264
5.230000	0.004669	0.000295
5.240000	0.004435	0.000478
5.250000	0.004323	0.000590
5.260000	0.004293	-0.000183
5.270000	0.004049	0.000763
5.280000	0.004486	-0.000071
5.290000	0.004537	-0.000254
5.300000	0.004272	-0.000122
5.310000	0.003744	-0.000326
5.320000	0.004883	0.000112
5.330000	0.004293	0.000671
5.340000	0.004405	-0.000214
5.350000	0.004903	0.000020
5.360000	0.004629	0.000000
5.370000	0.004374	-0.000224
5.380000	0.004618	-0.000112
5.390000	0.004934	-0.000041
5.400000	0.005046	-0.000224
5.410000	0.004578	-0.000193
5.420000	0.004934	-0.000275
5.430000	0.005096	0.000081
5.440000	0.004751	-0.000122
5.450000	0.004700	0.000122
5.460000	0.004954	-0.000407
5.470000	0.004679	-0.000478
5.480000	0.004222	-0.000132
5.490000	0.003906	0.000987
5.500000	0.004181	-0.000417
5.510000	0.004567	-0.000183
5.520000	0.004415	-0.000041
5.530000	0.004140	-0.000356
5.540000	0.004547	-0.000234
5.550000	0.004761	-0.000010
5.560000	0.004791	0.000071
5.570000	0.004669	0.000071
5.580000	0.004547	-0.000010
5.590000	0.004730	-0.000264
5.600000	0.005066	-0.000519
5.610000	0.004598	0.000315
5.620000	0.004578	-0.000712
5.630000	0.003876	-0.000071
5.640000	0.003733	-0.000336
5.650000	0.004771	0.000081
5.660000	0.003184	0.000346
5.670000	0.004059	-0.000193
5.680000	0.003449	-0.000346
5.690000	0.004425	-0.000621
5.700000	0.004710	0.000193
5.710000	0.004028	-0.001007
5.720000	0.004130	-0.000295
5.730000	0.004690	0.000132
5.740000	0.004761	-0.000214
5.750000	0.004812	0.000020
5.760000	0.004588	0.000193
5.770000	0.004079	0.000346
5.780000	0.004822	0.000285
5.790000	0.004140	-0.000427
5.800000	0.005330	0.000214
5.810000	0.004567	0.000773
5.820000	0.004283	-0.000437
5.830000	0.004211	0.000244
5.840000	0.004700	0.000122
5.850000	0.003784	-0.000031
5.860000	0.004334	0.000153
5.870000	0.003825	0.000020
5.880000	0.004608	0.000478
5.890000	0.005208	0.000254
5.900000	0.004140	0.000234
5.910000	0.004710	-0.000376
5.920000	0.004985	-0.000102
5.930000	0.004700	0.000092
5.940000	0.004608	-0.000112
5.950000	0.004801	0.000041
5.960000	0.004639	0.000041
5.970000	0.004761	-0.000783
5.980000	0.004720	-0.000315
5.990000	0.004374	-0.000153
6.000000	0.004771	-0.000092
6.010000	0.004578	-0.000692
6.020000	0.004974	0.000020
6.030000	0.004944	-0.000193
6.040000	0.004679	-0.000163
6.050000	0.004130	0.000712
6.060000	0.004415	-0.000671
6.070000	0.004018	-0.000142
6.080000	0.004547	0.000356
6.090000	0.003988	0.000376
6.100000	0.004608	0.000264
6.110000	0.004272	0.000376
6.120000	0.004832	0.000092
6.130000	0.004425	0.000020
6.140000	0.004751	-0.000031
6.150000	0.004985	-0.000122
6.160000	0.004578	0.000061
6.170000	0.004028	-0.000071
6.180000	0.004801	-0.000661
6.190000	0.004517	0.000234
6.200000	0.003744	-0.000122
6.210000	0.004751	-0.000743
6.220000	0.004161	-0.000285
6.230000	0.004222	-0.000183
6.240000	0.003977	0.000102
6.250000	0.004089	-0.000305
6.260000	0.003825	0.000336
6.270000	0.004466	0.000224
6.280000	0.003438	0.000173
6.290000	0.004140	0.000081
6.300000	0.004985	0.000295
6.310000	0.004842	0.000366
6.320000	0.004710	0.000356
6.330000	0.004659	0.000193
6.340000	0.004456	0.000051
6.350000	0.004832	-0.000163
6.360000	0.004384	-0.000305
6.370000	0.004730	0.000254
6.380000	0.004527	-0.000041
6.390000	0.004679	-0.000132
6.400000	0.004486	-0.000112
6.410000	0.004395	0.000173
6.420000	0.004557	0.000234
6.430000	0.004791	0.000621
6.440000	0.004557	-0.000275
6.450000	0.003449	-0.000498
6.460000	0.004954	-0.000997
6.470000	0.004283	-0.000254
6.480000	0.004334	0.000254
6.490000	0.004130	0.000763
6.500000	0.004181	-0.000224
6.510000	0.004272	-0.000285
6.520000	0.004486	0.000315
6.530000	0.004262	0.000193
6.540000	0.004720	0.000458
6.550000	0.005076	-0.000112
6.560000	0.004222	-0.000112
6.570000	0.004517	0.000041
6.580000	0.004445	0.000020
6.590000	0.005249	-0.000234
6.600000	0.003815	-0.000061
6.610000	0.004649	0.000885
6.620000	0.003855	0.000041
6.630000	0.003957	0.000987
6.640000	0.004059	0.000244
6.650000	0.003937	0.000580
6.660000	0.003998	-0.000458
6.670000	0.004262	0.000427
6.680000	0.004445	-0.000112
6.690000	0.004517	-0.000509
6.700000	0.005096	-0.000010
6.710000	0.004649	0.000397
6.720000	0.004161	-0.000031
6.730000	0.004781	-0.000132
6.740000	0.004059	0.000163
6.750000	0.005310	0.000488
6.760000	0.004964	-0.000244
6.770000	0.004435	-0.000326
6.780000	0.004771	-0.000468
6.790000	0.004903	-0.000580
6.800000	0.004435	0.000061
6.810000	0.003662	0.000061
6.820000	0.003957	0.000641
6.830000	0.004262	0.000214
6.840000	0.003357	-0.000000
6.850000	0.005269	0.000275
6.860000	0.003957	-0.000102
6.870000	0.004395	-0.000234
6.880000	0.004506	0.000397
6.890000	0.004272	-0.000061
6.900000	0.004008	-0.000437
6.910000	0.004862	-0.000244
6.920000	0.003998	0.000549
6.930000	0.004425	-0.000183
6.940000	0.003805	-0.000651
6.950000	0.004232	-0.000346
6.960000	0.005788	-0.000203
6.970000	0.004415	0.000437
6.980000	0.004822	-0.000224
6.990000	0.004364	0.000631
7.000000	0.004913	-0.000092
7.010000	0.004751	0.000102
7.020000	0.003977	0.000061
7.030000	0.004272	0.000163
7.040000	0.004140	0.000183
7.050000	0.003611	-0.000600
7.060000	0.003428	0.000427
7.070000	0.004395	-0.000163
7.080000	0.004873	0.000122
7.090000	0.004222	0.000315
7.100000	0.004150	0.000427
7.110000	0.004405	0.000020
7.120000	0.004242	0.000641
7.130000	0.004710	-0.000173
7.140000	0.005219	-0.000244
7.150000	0.004944	-0.000916
7.160000	0.005127	-0.000081
7.170000	0.004018	0.000142
7.180000	0.004130	0.000315
7.190000	0.004466	0.000142
7.200000	0.004222	0.000234
7.210000	0.004313	-0.000417
7.220000	0.003815	-0.000244
7.230000	0.005056	-0.000407
7.240000	0.004293	-0.000020
7.250000	0.004018	-0.000031
7.260000	0.004690	-0.000305
7.270000	0.004903	-0.000559
7.280000	0.004517	0.000468
7.290000	0.004211	-0.000061
7.300000	0.004506	-0.000264
7.310000	0.004669	-0.000163
7.320000	0.004506	0.000051
7.330000	0.004018	-0.000000
7.340000	0.004272	-0.000610
7.350000	0.004740	-0.000336
7.360000	0.004008	-0.000366
7.370000	0.003988	0.000163
7.380000	0.004018	0.000437
7.390000	0.004059	0.000509
7.400000	0.004059	-0.000234
7.410000	0.004445	0.000132
7.420000	0.004293	0.000122
7.430000	0.005168	0.000061
7.440000	0.004222	-0.000153
7.450000	0.005107	0.000661
7.460000	0.004547	-0.000610
7.470000	0.004120	-0.000234
7.480000	0.004232	0.000468
7.490000	0.004639	0.000570
7.500000	0.004415	0.000010
7.510000	0.004506	0.000020
7.520000	0.004354	0.000031
7.530000	0.004374	-0.000661
7.540000	0.005046	0.000031
7.550000	0.003662	-0.001058
7.560000	0.003764	0.000671
7.570000	0.005086	0.000173
7.580000	0.003723	-0.000285
7.590000	0.004903	-0.000102
7.600000	0.003937	0.000478
7.610000	0.003621	0.000519
7.620000	0.003601	-0.000305
7.630000	0.004201	-0.000397
7.640000	0.004384	0.000295
7.650000	0.004232	0.000153
7.660000	0.003825	0.000061
7.670000	0.004415	0.000061
7.680000	0.004334	0.000234
7.690000	0.005025	0.000102
7.700000	0.004211	0.000132
7.710000	0.004049	-0.000153
7.720000	0.005066	-0.000071
7.730000	0.004517	-0.000173
7.740000	0.004812	-0.000488
7.750000	0.004608	0.000336
7.760000	0.004150	0.000570
7.770000	0.003957	0.000397
7.780000	0.003815	-0.000173
7.790000	0.003235	0.000427
7.800000	0.003998	-0.000193
7.810000	0.004659	-0.000183
7.820000	0.004303	-0.000305
7.830000	0.004374	0.000509
7.840000	0.004415	0.000315
7.850000	0.004781	-0.000031
7.860000	0.004517	0.000366
7.870000	0.004272	0.000417
7.880000	0.004883	-0.000387
7.890000	0.004557	0.000081
7.900000	0.004588	-0.000519
7.910000	0.004415	0.000163
7.920000	0.004659	-0.000051
7.930000	0.005086	0.000773
7.940000	0.004232	-0.000122
7.950000	0.004639	-0.000122
7.960000	0.005269	0.000234
7.970000	0.004211	0.000092
7.980000	0.004181	-0.000163
7.990000	0.004262	0.000417
8.000000	0.004740	0.000092
8.010000	0.004140	-0.000000
8.020000	0.004039	0.000102
8.030000	0.004039	-0.000366
8.040000	0.004425	0.000153
8.050000	0.004466	0.000132
8.060000	0.004211	0.000336
8.070000	0.004232	0.000112
8.080000	0.004547	-0.000061
8.090000	0.004771	-0.000020
8.100000	0.004527	0.000254
8.110000	0.004161	0.000346
8.120000	0.003784	-0.000539
8.130000	0.004771	-0.000346
8.140000	0.004313	-0.000132
8.150000	0.004659	0.000061
8.160000	0.003896	0.000437
8.170000	0.003550	-0.000305
8.180000	0.004384	-0.000590
8.190000	0.004822	-0.000244
8.200000	0.005229	0.000244
8.210000	0.004557	-0.000122
8.220000	0.004456	0.000336
8.230000	0.004700	0.000356
8.240000	0.004934	-0.000081
8.250000	0.004578	-0.000488
8.260000	0.004547	-0.000041
8.270000	0.004140	-0.000041
8.280000	0.004222	-0.000010
8.290000	0.004506	-0.000142
8.300000	0.004669	-0.000132
8.310000	0.003886	-0.000397
8.320000	0.004557	0.000020
8.330000	0.005391	0.000264
8.340000	0.004344	0.000285
8.350000	0.003916	0.000020
8.360000	0.005086	-0.000478
8.370000	0.003357	0.000224
8.380000	0.004517	0.000102
8.390000	0.003876	-0.000132
8.400000	0.004089	-0.000407
8.410000	0.003886	0.000326
8.420000	0.004873	0.000346
8.430000	0.004588	0.000285
8.440000	0.004303	0.000041
8.450000	0.004334	-0.000183
8.460000	0.004801	0.000102
8.470000	0.004690	-0.000549
8.480000	0.004771	0.000010
8.490000	0.003855	0.000305
8.500000	0.004272	0.000661
8.510000	0.004639	-0.000336
8.520000	0.004435	0.000651
8.530000	0.003754	0.000132
8.540000	0.004567	0.001211
8.550000	0.004395	0.000498
8.560000	0.004659	0.000122
8.570000	0.003530	-0.000661
8.580000	0.005402	-0.000336
8.590000	0.004313	0.000183
8.600000	0.004374	-0.000346
8.610000	0.004110	-0.000081
8.620000	0.005035	0.000336
8.630000	0.005117	-0.000102
8.640000	0.004364	-0.000163
8.650000	0.003703	-0.000417
8.660000	0.004059	0.000285
8.670000	0.004618	0.000285
8.680000	0.004171	-0.000549
8.690000	0.003916	-0.000661
8.700000	0.004283	0.000417
8.710000	0.004659	-0.000214
8.720000	0.004120	-0.000621
8.730000	0.003927	-0.000458
8.740000	0.004466	0.000519
8.750000	0.004730	0.000041
8.760000	0.003520	0.000712
8.770000	0.003265	0.000234
8.780000	0.004883	-0.000264
8.790000	0.003876	-0.000061
8.800000	0.004435	0.000163
8.810000	0.005056	-0.000010
8.820000	0.004537	0.000203
8.830000	0.003672	0.000539
8.840000	0.004100	-0.000427
8.850000	0.004191	-0.000061
8.860000	0.004384	0.000275
8.870000	0.004649	-0.000387
8.880000	0.004852	-0.000865
8.890000	0.004008	0.000214
8.900000	0.004934	0.000824
8.910000	0.003906	0.000142
8.920000	0.005168	-0.000102
8.930000	0.004323	-0.000539
8.940000	0.004730	-0.000478
8.950000	0.004730	0.000529
8.960000	0.004201	-0.000020
8.970000	0.004395	0.000295
8.980000	0.004456	-0.000519
8.990000	0.004517	0.000041
9.000000	0.003845	-0.000132
9.010000	0.004506	0.000081
9.020000	0.004171	-0.000376
9.030000	0.003845	0.000295
9.040000	0.004812	0.000661
9.050000	0.004171	-0.000010
9.060000	0.003428	-0.000570
9.070000	0.002970	-0.000264
9.080000	0.004547	-0.000661
9.090000	0.004812	-0.000478
9.100000	0.004130	-0.000041
9.110000	0.005208	-0.000153
9.120000	0.003326	-0.000031
9.130000	0.004415	0.000417
9.140000	0.003723	0.000193
9.150000	0.004069	0.000275
9.160000	0.004720	0.000244
9.170000	0.004588	-0.000498
9.180000	0.004150	-0.000407
9.190000	0.003774	0.000397
9.200000	0.004476	0.000773
9.210000	0.004211	-0.000407
9.220000	0.004964	-0.000183
9.230000	0.003967	-0.000448
9.240000	0.004720	-0.000275
9.250000	0.004547	-0.000000
9.260000	0.004598	0.000132
9.270000	0.004242	-0.000081
9.280000	0.004252	-0.000376
9.290000	0.004262	0.000092
9.300000	0.003896	-0.000010
9.310000	0.004537	-0.000376
9.320000	0.003571	-0.000366
9.330000	0.004181	0.000163
9.340000	0.004191	0.000153
9.350000	0.004100	0.000153
9.360000	0.004232	-0.000203
9.370000	0.004018	-0.000071
9.380000	0.004089	-0.000051
9.390000	0.003713	-0.000376
9.400000	0.004089	-0.000275
9.410000	0.004293	0.000132
9.420000	0.004384	0.000142
9.430000	0.003601	-0.000437
9.440000	0.004161	-0.000356
9.450000	0.003550	0.000488
9.460000	0.004089	0.000061
9.470000	0.004985	0.000448
9.480000	0.004313	0.000132
9.490000	0.003316	-0.000590
9.500000	0.004211	-0.000305
9.510000	0.004059	-0.000183
9.520000	0.004039	-0.000122
9.530000	0.003937	-0.000020
9.540000	0.004435	-0.000071
9.550000	0.004242	-0.000010
9.560000	0.004018	-0.000722
9.570000	0.004476	-0.000031
9.580000	0.003815	0.000051
9.590000	0.004089	-0.000387
9.600000	0.004008	-0.000142
9.610000	0.004120	-0.000244
9.620000	0.003906	0.000020
9.630000	0.004069	-0.000031
9.640000	0.004415	-0.000264
9.650000	0.004374	-0.000549
9.660000	0.003682	0.000336
9.670000	0.004232	0.000102
9.680000	0.004405	0.000498
9.690000	0.004598	0.000092
9.700000	0.004262	-0.000264
9.710000	0.004120	-0.000071
9.720000	0.004303	0.000529
9.730000	0.003733	-0.000051
9.740000	0.004547	0.000437
9.750000	0.003855	0.000305
9.760000	0.003713	0.000336
9.770000	0.004211	-0.000163
9.780000	0.004384	-0.000224
9.790000	0.004242	-0.000427
9.800000	0.004262	0.000275
9.810000	0.003947	0.000102
9.820000	0.004700	-0.000570
9.830000	0.004669	0.000356
9.840000	0.004272	-0.000010
9.850000	0.004181	0.000153
9.860000	0.004567	-0.000570
9.870000	0.004934	-0.000183
9.880000	0.004812	0.000417
9.890000	0.004995	0.000193
9.900000	0.003744	0.000153
9.910000	0.004354	-0.000661
9.920000	0.004293	-0.000315
9.930000	0.003449	0.000275
9.940000	0.004618	-0.000081
9.950000	0.004639	0.000234
9.960000	0.004171	-0.000305
9.970000	0.004374	0.000112
9.980000	0.004262	-0.000112
9.990000	0.004740	-0.000234
10.000000	0.004059	0.000092
