UBB Dec12 1847 Average.d24 - THz Start: 187.69 mm, 1000 points, 10 fs - Pump Probe Time: 0.85 ps, Pump Motor Position: 95.3250 mm, 46 points, -50 fs - Wait: 400 ms -  Averages: 1 - Lock-In 1: 500 mV/mA, 100 ms - Lock-In 2: 500 mV/mA, 100 ms
0.010000	0.004506	0.000142
0.020000	0.005249	-0.000376
0.030000	0.004140	-0.000173
0.040000	0.004934	0.000387
0.050000	0.004008	0.000081
0.060000	0.004669	0.000987
0.070000	0.003530	-0.000773
0.080000	0.004222	-0.000997
0.090000	0.004496	-0.000132
0.100000	0.004384	0.000478
0.110000	0.004669	0.000498
0.120000	0.004649	0.000305
0.130000	0.004100	-0.000397
0.140000	0.004201	0.000020
0.150000	0.004578	0.000224
0.160000	0.005015	-0.000366
0.170000	0.004557	0.000397
0.180000	0.003906	-0.000397
0.190000	0.004761	0.000224
0.200000	0.004588	0.000112
0.210000	0.004903	0.000173
0.220000	0.004354	-0.000020
0.230000	0.003927	-0.000020
0.240000	0.004496	0.000285
0.250000	0.004364	-0.000051
0.260000	0.004252	-0.000315
0.270000	0.004862	-0.000641
0.280000	0.004252	0.000102
0.290000	0.004171	0.000356
0.300000	0.004893	0.000427
0.310000	0.003499	-0.000804
0.320000	0.003062	-0.000305
0.330000	0.004100	-0.000427
0.340000	0.005381	0.000417
0.350000	0.004130	-0.000468
0.360000	0.004812	0.000387
0.370000	0.003876	0.000142
0.380000	0.004720	-0.000254
0.390000	0.004211	-0.000102
0.400000	0.004690	-0.000071
0.410000	0.003794	0.000031
0.420000	0.004252	0.000336
0.430000	0.004730	-0.000336
0.440000	0.005086	-0.000366
0.450000	0.004039	-0.000224
0.460000	0.003927	0.000264
0.470000	0.003977	-0.000234
0.480000	0.004527	0.000132
0.490000	0.004069	0.000468
0.500000	0.004100	-0.000203
0.510000	0.003855	-0.000641
0.520000	0.004334	-0.000509
0.530000	0.004547	-0.001048
0.540000	0.004669	-0.000285
0.550000	0.004690	0.000031
0.560000	0.004059	-0.000224
0.570000	0.004537	0.000142
0.580000	0.005025	-0.000051
0.590000	0.005025	-0.000315
0.600000	0.004995	0.000336
0.610000	0.004089	-0.000183
0.620000	0.004486	0.000641
0.630000	0.003916	-0.000326
0.640000	0.004578	-0.000488
0.650000	0.004171	-0.000112
0.660000	0.004089	-0.000661
0.670000	0.003977	-0.000183
0.680000	0.003682	0.000285
0.690000	0.004293	0.000132
0.700000	0.004964	-0.000132
0.710000	0.004496	0.000092
0.720000	0.003550	0.000437
0.730000	0.003642	-0.000570
0.740000	0.004110	-0.000132
0.750000	0.004120	0.000315
0.760000	0.003693	-0.000305
0.770000	0.004069	-0.000448
0.780000	0.003591	-0.000610
0.790000	0.004456	-0.000732
0.800000	0.004466	-0.000458
0.810000	0.004598	-0.000051
0.820000	0.004252	-0.000671
0.830000	0.004598	-0.000651
0.840000	0.004201	0.000315
0.850000	0.004445	-0.000163
0.860000	0.004415	-0.000407
0.870000	0.004801	0.000020
0.880000	0.004466	-0.000275
0.890000	0.005422	-0.000437
0.900000	0.004445	0.000437
0.910000	0.003713	-0.000041
0.920000	0.004456	-0.000559
0.930000	0.004618	-0.000387
0.940000	0.003988	-0.000183
0.950000	0.004334	0.000031
0.960000	0.004323	0.000590
0.970000	0.004649	-0.000783
0.980000	0.004506	0.000173
0.990000	0.004527	-0.000356
1.000000	0.004059	0.000051
1.010000	0.004852	0.000031
1.020000	0.004588	-0.000234
1.030000	0.004812	0.000387
1.040000	0.004842	0.000102
1.050000	0.004334	-0.000214
1.060000	0.004567	0.000549
1.070000	0.004415	-0.000041
1.080000	0.004425	0.000000
1.090000	0.004883	-0.000712
1.100000	0.004486	-0.000387
1.110000	0.003815	-0.000580
1.120000	0.004272	0.000092
1.130000	0.004862	-0.000295
1.140000	0.004995	0.000173
1.150000	0.005005	0.000376
1.160000	0.005422	-0.000295
1.170000	0.004852	-0.000305
1.180000	0.005188	0.000285
1.190000	0.005127	-0.000071
1.200000	0.004812	-0.000326
1.210000	0.005981	0.000488
1.220000	0.005147	-0.000214
1.230000	0.005554	0.000458
1.240000	0.005941	-0.000356
1.250000	0.005453	0.000488
1.260000	0.005178	0.000549
1.270000	0.005534	0.000529
1.280000	0.005544	0.000509
1.290000	0.005351	0.000529
1.300000	0.005788	0.000498
1.310000	0.005778	-0.000102
1.320000	0.008026	0.000254
1.330000	0.010773	0.001261
1.340000	0.013631	0.001984
1.350000	0.017131	0.002279
1.360000	0.019765	0.003479
1.370000	0.020986	0.004039
1.380000	0.017619	0.004232
1.390000	0.010284	0.004242
1.400000	0.000793	0.001994
1.410000	-0.009176	-0.002055
1.420000	-0.015503	-0.005117
1.430000	-0.018738	-0.007233
1.440000	-0.016917	-0.008280
1.450000	-0.012502	-0.006327
1.460000	-0.007294	-0.004171
1.470000	-0.002085	-0.001475
1.480000	0.003754	0.000621
1.490000	0.009460	0.001862
1.500000	0.015330	0.003744
1.510000	0.022319	0.005605
1.520000	0.022441	0.005402
1.530000	0.022319	0.007304
1.540000	0.015808	0.004089
1.550000	0.009959	0.004435
1.560000	0.000397	0.000580
1.570000	-0.012695	-0.007263
1.580000	-0.020783	-0.009796
1.590000	-0.020813	-0.009562
1.600000	-0.025472	-0.013530
1.610000	-0.021963	-0.011759
1.620000	-0.016215	-0.009491
1.630000	-0.009725	-0.005249
1.640000	-0.004720	-0.001129
1.650000	-0.003347	0.000936
1.660000	-0.000488	0.003113
1.670000	0.000712	0.003245
1.680000	0.002655	0.003957
1.690000	0.004120	0.003744
1.700000	0.004669	0.004069
1.710000	0.005595	0.002655
1.720000	0.008087	0.001099
1.730000	0.008575	-0.000315
1.740000	0.009725	-0.000661
1.750000	0.011444	-0.001292
1.760000	0.011465	-0.002035
1.770000	0.012645	-0.002177
1.780000	0.013570	-0.002197
1.790000	0.012797	-0.003011
1.800000	0.011515	-0.001455
1.810000	0.012217	-0.000946
1.820000	0.010946	-0.000580
1.830000	0.009522	0.000722
1.840000	0.009033	0.000987
1.850000	0.007233	0.002533
1.860000	0.007294	0.002970
1.870000	0.007121	0.003774
1.880000	0.005981	0.004262
1.890000	0.006134	0.004211
1.900000	0.007294	0.003947
1.910000	0.007334	0.003591
1.920000	0.008362	0.002889
1.930000	0.009288	0.001607
1.940000	0.009674	0.000498
1.950000	0.009216	-0.000468
1.960000	0.010956	-0.000977
1.970000	0.011088	-0.001434
1.980000	0.010722	-0.001556
1.990000	0.010610	-0.001984
2.000000	0.010549	-0.001495
2.010000	0.010223	-0.001434
2.020000	0.009186	-0.000783
2.030000	0.006734	-0.000407
2.040000	0.006877	-0.000885
2.050000	0.006358	0.000631
2.060000	0.005005	0.000793
2.070000	0.004527	0.001526
2.080000	0.003988	0.001658
2.090000	0.004547	0.002065
2.100000	0.004283	0.002380
2.110000	0.003825	0.002523
2.120000	0.003845	0.001577
2.130000	0.005473	0.001251
2.140000	0.006063	-0.000020
2.150000	0.006378	0.000051
2.160000	0.007060	0.000142
2.170000	0.007538	-0.001302
2.180000	0.007965	-0.001017
2.190000	0.007741	-0.001373
2.200000	0.008392	-0.001577
2.210000	0.006165	-0.000997
2.220000	0.007579	-0.000102
2.230000	0.006083	-0.000224
2.240000	0.005859	0.000570
2.250000	0.004456	0.001261
2.260000	0.002706	0.000661
2.270000	0.003133	0.000702
2.280000	0.002940	0.001760
2.290000	0.001668	0.002279
2.300000	0.002452	0.002126
2.310000	0.001668	0.001363
2.320000	0.002055	0.001149
2.330000	0.003723	0.000203
2.340000	0.003377	-0.000366
2.350000	0.003805	-0.000214
2.360000	0.004690	-0.000753
2.370000	0.005351	-0.001129
2.380000	0.005229	-0.001699
2.390000	0.006154	-0.000478
2.400000	0.005239	-0.001729
2.410000	0.005137	-0.000315
2.420000	0.004028	-0.000336
2.430000	0.003052	0.000214
2.440000	0.003876	-0.000539
2.450000	0.003387	0.000193
2.460000	0.003347	0.000539
2.470000	0.002747	0.000214
2.480000	0.002248	0.001536
2.490000	0.001709	0.001038
2.500000	0.002808	0.000610
2.510000	0.001699	-0.000112
2.520000	0.002167	-0.000132
2.530000	0.002258	-0.000051
2.540000	0.002818	-0.000580
2.550000	0.002950	-0.001150
2.560000	0.003479	-0.000987
2.570000	0.003306	-0.000458
2.580000	0.003581	-0.001170
2.590000	0.003265	-0.000559
2.600000	0.004364	-0.001211
2.610000	0.004059	-0.001556
2.620000	0.003530	-0.001699
2.630000	0.003916	-0.001109
2.640000	0.003245	-0.000346
2.650000	0.003092	-0.000468
2.660000	0.003326	0.000051
2.670000	0.002299	-0.000102
2.680000	0.002686	-0.000081
2.690000	0.001607	0.000234
2.700000	0.002228	0.000183
2.710000	0.002380	-0.000112
2.720000	0.003621	0.000183
2.730000	0.002502	-0.000651
2.740000	0.003031	-0.000132
2.750000	0.002502	0.000448
2.760000	0.003601	-0.001363
2.770000	0.003998	-0.001953
2.780000	0.005066	-0.001261
2.790000	0.004283	-0.001394
2.800000	0.004344	-0.001048
2.810000	0.004557	-0.001068
2.820000	0.004039	-0.001099
2.830000	0.004425	-0.001719
2.840000	0.003337	0.000214
2.850000	0.003174	-0.000641
2.860000	0.003510	0.000275
2.870000	0.002411	0.000214
2.880000	0.002401	0.000163
2.890000	0.003072	0.000427
2.900000	0.002696	-0.000071
2.910000	0.002818	0.000326
2.920000	0.002401	-0.000793
2.930000	0.003733	0.000071
2.940000	0.004486	0.000203
2.950000	0.004191	-0.001058
2.960000	0.004374	-0.000743
2.970000	0.004466	-0.000773
2.980000	0.004374	-0.000519
2.990000	0.005096	-0.000224
3.000000	0.004557	-0.000153
3.010000	0.004618	-0.001078
3.020000	0.004466	-0.000773
3.030000	0.004924	-0.000295
3.040000	0.004537	-0.000437
3.050000	0.003967	0.000376
3.060000	0.004191	-0.000071
3.070000	0.003977	0.000946
3.080000	0.003377	0.000203
3.090000	0.003560	0.000387
3.100000	0.003398	0.000407
3.110000	0.003967	0.000173
3.120000	0.004222	0.000356
3.130000	0.004181	-0.000305
3.140000	0.004506	-0.000366
3.150000	0.003906	0.000122
3.160000	0.004252	-0.000895
3.170000	0.004903	-0.001190
3.180000	0.004791	-0.000824
3.190000	0.004659	-0.001017
3.200000	0.004812	-0.000631
3.210000	0.004232	-0.000570
3.220000	0.004028	-0.000081
3.230000	0.003794	-0.000122
3.240000	0.004079	0.000173
3.250000	0.004191	0.000732
3.260000	0.004150	0.000102
3.270000	0.003927	0.000214
3.280000	0.004191	-0.000336
3.290000	0.004252	-0.000264
3.300000	0.004049	0.000448
3.310000	0.004608	0.000854
3.320000	0.004517	0.000549
3.330000	0.004323	-0.000031
3.340000	0.004445	-0.000264
3.350000	0.005056	-0.000305
3.360000	0.004374	-0.000203
3.370000	0.003886	-0.000631
3.380000	0.004964	0.000092
3.390000	0.004964	-0.000336
3.400000	0.004395	-0.000163
3.410000	0.004649	0.000051
3.420000	0.004466	0.000427
3.430000	0.003957	-0.000285
3.440000	0.004486	0.000936
3.450000	0.004425	-0.000020
3.460000	0.004466	0.000234
3.470000	0.004089	0.000193
3.480000	0.004445	-0.000285
3.490000	0.004272	0.000458
3.500000	0.003693	0.000773
3.510000	0.003723	-0.000173
3.520000	0.004100	0.000295
3.530000	0.004283	0.000203
3.540000	0.004669	0.000315
3.550000	0.004466	-0.000387
3.560000	0.005422	-0.000051
3.570000	0.005086	-0.001048
3.580000	0.004354	0.000183
3.590000	0.005330	-0.000488
3.600000	0.005198	-0.000905
3.610000	0.004150	-0.000875
3.620000	0.004435	0.000244
3.630000	0.004028	0.000081
3.640000	0.004456	-0.000509
3.650000	0.004211	-0.000122
3.660000	0.004608	0.000173
3.670000	0.004313	0.000824
3.680000	0.003693	-0.000071
3.690000	0.003611	0.001038
3.700000	0.004842	-0.000041
3.710000	0.003794	-0.000254
3.720000	0.003906	0.000631
3.730000	0.004618	0.000478
3.740000	0.004405	0.000671
3.750000	0.004120	0.000041
3.760000	0.003876	-0.000539
3.770000	0.004415	-0.000458
3.780000	0.004913	-0.000224
3.790000	0.005035	-0.000031
3.800000	0.005035	-0.000336
3.810000	0.005086	-0.000214
3.820000	0.004354	-0.000509
3.830000	0.004028	-0.000295
3.840000	0.003947	0.000346
3.850000	0.004242	0.000651
3.860000	0.003713	0.000468
3.870000	0.004039	0.000397
3.880000	0.003581	-0.000071
3.890000	0.004089	0.000254
3.900000	0.003632	-0.000173
3.910000	0.004161	0.000264
3.920000	0.003957	0.000153
3.930000	0.003784	0.000010
3.940000	0.004669	-0.000031
3.950000	0.003906	-0.000254
3.960000	0.003896	-0.001099
3.970000	0.003825	0.000010
3.980000	0.004435	-0.000753
3.990000	0.004476	-0.000448
4.000000	0.003947	0.000193
4.010000	0.004690	-0.000366
4.020000	0.004110	-0.000183
4.030000	0.004252	-0.000387
4.040000	0.004801	0.000692
4.050000	0.004629	0.000092
4.060000	0.003957	0.000977
4.070000	0.003571	-0.000203
4.080000	0.004913	0.000529
4.090000	0.004181	0.000132
4.100000	0.004171	-0.000153
4.110000	0.003316	0.000315
4.120000	0.003632	0.000356
4.130000	0.004110	0.000254
4.140000	0.003672	0.000051
4.150000	0.004201	0.000234
4.160000	0.004354	0.000183
4.170000	0.004618	-0.000743
4.180000	0.004883	0.000193
4.190000	0.005330	-0.000407
4.200000	0.004720	-0.000203
4.210000	0.004852	0.000112
4.220000	0.004669	0.000000
4.230000	0.003754	-0.000051
4.240000	0.004924	-0.000173
4.250000	0.004567	-0.000122
4.260000	0.002940	-0.000641
4.270000	0.004517	-0.000295
4.280000	0.003815	-0.000509
4.290000	0.004374	-0.000132
4.300000	0.004578	-0.000600
4.310000	0.004435	-0.000732
4.320000	0.004425	0.000132
4.330000	0.003225	-0.000326
4.340000	0.004374	0.000437
4.350000	0.004862	0.000102
4.360000	0.004639	0.000488
4.370000	0.005208	-0.000061
4.380000	0.004771	-0.000142
4.390000	0.004700	-0.000315
4.400000	0.004252	-0.000020
4.410000	0.004252	-0.001007
4.420000	0.004232	0.000641
4.430000	0.004496	-0.000020
4.440000	0.004445	0.000214
4.450000	0.004924	-0.000224
4.460000	0.004120	0.000203
4.470000	0.003723	0.000610
4.480000	0.003449	0.000142
4.490000	0.004995	-0.000346
4.500000	0.003825	0.000132
4.510000	0.003276	-0.000427
4.520000	0.004222	-0.000183
4.530000	0.003337	-0.001302
4.540000	0.003682	0.000234
4.550000	0.004120	-0.000305
4.560000	0.004974	0.000214
4.570000	0.004873	-0.000834
4.580000	0.004334	-0.000621
4.590000	0.005229	-0.000081
4.600000	0.004669	-0.000437
4.610000	0.004303	-0.000488
4.620000	0.004252	-0.000336
4.630000	0.004415	-0.000285
4.640000	0.004445	-0.000234
4.650000	0.003947	-0.000041
4.660000	0.003733	0.000102
4.670000	0.003937	-0.000529
4.680000	0.004049	-0.000305
4.690000	0.004659	0.000692
4.700000	0.002909	0.000905
4.710000	0.003815	-0.000407
4.720000	0.003713	0.001160
4.730000	0.003967	-0.000193
4.740000	0.003184	-0.000142
4.750000	0.003591	-0.000000
4.760000	0.004466	-0.000621
4.770000	0.004049	0.000315
4.780000	0.004344	0.000427
4.790000	0.004679	-0.000020
4.800000	0.004801	-0.000193
4.810000	0.004608	0.000163
4.820000	0.004028	0.000031
4.830000	0.004618	0.000153
4.840000	0.004283	-0.000793
4.850000	0.004466	0.000387
4.860000	0.004995	0.000112
4.870000	0.004791	-0.000366
4.880000	0.003611	0.000977
4.890000	0.003866	-0.000732
4.900000	0.004435	-0.000214
4.910000	0.003357	0.000956
4.920000	0.003876	0.001078
4.930000	0.003906	0.000163
4.940000	0.004222	0.000132
4.950000	0.004313	-0.000183
4.960000	0.004812	-0.000142
4.970000	0.004944	-0.000671
4.980000	0.004496	-0.000478
4.990000	0.005656	0.000000
5.000000	0.004313	-0.000264
5.010000	0.004547	0.000122
5.020000	0.005005	-0.000427
5.030000	0.004232	0.000153
5.040000	0.003754	-0.000478
5.050000	0.004415	0.000122
5.060000	0.004903	-0.000112
5.070000	0.004527	0.000000
5.080000	0.003672	-0.000132
5.090000	0.004435	0.000366
5.100000	0.003408	0.000336
5.110000	0.003489	-0.000020
5.120000	0.003825	0.000234
5.130000	0.003632	0.000234
5.140000	0.004771	-0.000163
5.150000	0.004659	-0.000051
5.160000	0.003957	-0.000254
5.170000	0.004466	0.000580
5.180000	0.004476	0.000427
5.190000	0.004639	-0.000417
5.200000	0.004791	-0.000224
5.210000	0.004232	-0.001017
5.220000	0.005534	-0.000326
5.230000	0.004161	-0.000376
5.240000	0.004039	-0.000682
5.250000	0.003611	0.000112
5.260000	0.003855	-0.000732
5.270000	0.004944	-0.000071
5.280000	0.003632	0.000122
5.290000	0.004669	0.000264
5.300000	0.003774	0.000478
5.310000	0.004862	0.000132
5.320000	0.005076	0.000387
5.330000	0.004985	0.000315
5.340000	0.005412	0.000387
5.350000	0.004486	0.000610
5.360000	0.004557	-0.000031
5.370000	0.005168	0.000081
5.380000	0.004883	0.000214
5.390000	0.004862	0.000000
5.400000	0.005473	0.000092
5.410000	0.005412	0.000631
5.420000	0.005025	-0.000498
5.430000	0.004537	-0.000112
5.440000	0.004740	0.000610
5.450000	0.005442	-0.000224
5.460000	0.004425	0.000417
5.470000	0.003703	-0.000559
5.480000	0.003520	0.000397
5.490000	0.004232	-0.000122
5.500000	0.004059	0.000041
5.510000	0.003876	0.000203
5.520000	0.003835	-0.000051
5.530000	0.004069	-0.000102
5.540000	0.004527	-0.000092
5.550000	0.004730	0.000295
5.560000	0.004486	-0.000193
5.570000	0.004537	0.000163
5.580000	0.004903	0.000041
5.590000	0.004873	-0.000173
5.600000	0.004517	-0.000224
5.610000	0.004740	-0.000285
5.620000	0.004832	0.000092
5.630000	0.004517	0.000275
5.640000	0.005290	0.000448
5.650000	0.004720	-0.000783
5.660000	0.004303	-0.000977
5.670000	0.003703	-0.000488
5.680000	0.003764	-0.000427
5.690000	0.004384	0.000916
5.700000	0.004161	-0.001129
5.710000	0.004740	-0.000305
5.720000	0.004039	0.000264
5.730000	0.004506	-0.000478
5.740000	0.004537	0.000102
5.750000	0.003581	0.000529
5.760000	0.003967	-0.000183
5.770000	0.004191	0.000376
5.780000	0.004293	0.000346
5.790000	0.003815	0.000519
5.800000	0.004130	-0.000468
5.810000	0.004771	0.000031
5.820000	0.004822	0.000081
5.830000	0.004974	-0.000692
5.840000	0.004425	-0.000010
5.850000	0.004435	0.000305
5.860000	0.003194	0.000824
5.870000	0.004639	-0.000041
5.880000	0.004191	-0.000061
5.890000	0.003540	0.000427
5.900000	0.004476	0.000112
5.910000	0.004120	0.000458
5.920000	0.004649	-0.000081
5.930000	0.004018	0.000468
5.940000	0.004659	0.000295
5.950000	0.004618	-0.000702
5.960000	0.004456	-0.000264
5.970000	0.004934	-0.000621
5.980000	0.003459	-0.000203
5.990000	0.004761	-0.000722
6.000000	0.003977	-0.000641
6.010000	0.003449	-0.000203
6.020000	0.004039	0.000326
6.030000	0.004303	0.000417
6.040000	0.003906	0.000600
6.050000	0.004171	0.000488
6.060000	0.003937	-0.000275
6.070000	0.003092	-0.000407
6.080000	0.003408	0.000570
6.090000	0.004618	0.000061
6.100000	0.004639	0.000468
6.110000	0.004272	0.000071
6.120000	0.004445	0.000448
6.130000	0.004690	0.000946
6.140000	0.004913	-0.000875
6.150000	0.003947	0.000519
6.160000	0.004120	-0.000071
6.170000	0.004801	-0.000122
6.180000	0.004110	0.000132
6.190000	0.004618	0.000570
6.200000	0.004079	0.000682
6.210000	0.004354	-0.000478
6.220000	0.004354	-0.000610
6.230000	0.004211	-0.000356
6.240000	0.002970	0.000895
6.250000	0.003988	0.000315
6.260000	0.004232	-0.000285
6.270000	0.003967	-0.000020
6.280000	0.003652	-0.000326
6.290000	0.004293	-0.000244
6.300000	0.003428	0.000264
6.310000	0.003876	-0.000621
6.320000	0.004161	-0.000051
6.330000	0.004669	0.000112
6.340000	0.005239	0.000092
6.350000	0.004618	0.000285
6.360000	0.004334	0.000000
6.370000	0.004079	-0.000163
6.380000	0.004384	0.000081
6.390000	0.004547	-0.000163
6.400000	0.004150	-0.000102
6.410000	0.003906	0.000326
6.420000	0.004334	-0.000132
6.430000	0.004262	0.000997
6.440000	0.003204	-0.000315
6.450000	0.003896	0.000356
6.460000	0.004059	0.000509
6.470000	0.004852	-0.000376
6.480000	0.004466	0.000539
6.490000	0.004791	-0.000112
6.500000	0.004649	-0.000173
6.510000	0.004405	-0.000193
6.520000	0.004964	0.000234
6.530000	0.004344	-0.000244
6.540000	0.004181	-0.000539
6.550000	0.005066	-0.000529
6.560000	0.005137	0.000580
6.570000	0.003937	-0.000519
6.580000	0.003957	0.000153
6.590000	0.002665	0.000895
6.600000	0.004944	-0.000580
6.610000	0.004313	0.000590
6.620000	0.004425	0.000610
6.630000	0.004028	-0.000671
6.640000	0.004822	0.000153
6.650000	0.003825	-0.000010
6.660000	0.003916	0.000315
6.670000	0.004588	0.000478
6.680000	0.004710	-0.000366
6.690000	0.004812	-0.000570
6.700000	0.004649	-0.000173
6.710000	0.004974	-0.000010
6.720000	0.004598	0.000081
6.730000	0.004364	0.000295
6.740000	0.004669	0.000173
6.750000	0.003693	-0.000539
6.760000	0.003560	0.000000
6.770000	0.005046	-0.000580
6.780000	0.004120	0.000244
6.790000	0.003733	0.000020
6.800000	0.004456	-0.000356
6.810000	0.004079	0.000509
6.820000	0.003916	0.000417
6.830000	0.003967	-0.000031
6.840000	0.003927	0.000295
6.850000	0.004913	-0.000570
6.860000	0.004557	0.000102
6.870000	0.004608	-0.000468
6.880000	0.004374	-0.000010
6.890000	0.004822	-0.000122
6.900000	0.004496	0.000092
6.910000	0.004690	-0.000498
6.920000	0.004150	-0.000356
6.930000	0.003347	-0.000539
6.940000	0.004466	-0.000722
6.950000	0.005015	0.000071
6.960000	0.004964	0.000020
6.970000	0.004232	0.001241
6.980000	0.003560	0.000407
6.990000	0.004374	-0.000295
7.000000	0.005086	0.000529
7.010000	0.004842	0.000285
7.020000	0.004039	-0.000142
7.030000	0.005157	0.000326
7.040000	0.004812	0.000793
7.050000	0.004476	0.000641
7.060000	0.004456	-0.000326
7.070000	0.004191	0.000193
7.080000	0.004161	0.000427
7.090000	0.004262	-0.000275
7.100000	0.004730	0.000570
7.110000	0.004812	-0.000722
7.120000	0.004323	-0.000102
7.130000	0.004506	-0.000346
7.140000	0.004161	-0.000743
7.150000	0.004435	-0.000031
7.160000	0.004303	-0.000112
7.170000	0.005371	-0.000488
7.180000	0.004964	-0.000336
7.190000	0.004191	0.000641
7.200000	0.004466	-0.000478
7.210000	0.004557	0.000224
7.220000	0.004679	0.000061
7.230000	0.005005	0.000153
7.240000	0.005005	0.000356
7.250000	0.004608	-0.000051
7.260000	0.004059	-0.000081
7.270000	0.004435	0.000458
7.280000	0.004039	-0.000193
7.290000	0.005605	0.000498
7.300000	0.005269	0.000203
7.310000	0.004008	0.000458
7.320000	0.005371	0.000621
7.330000	0.003784	-0.000010
7.340000	0.004506	-0.000509
7.350000	0.004608	-0.000112
7.360000	0.002767	0.000092
7.370000	0.003754	-0.000051
7.380000	0.004445	-0.000234
7.390000	0.004079	-0.000285
7.400000	0.004191	-0.000183
7.410000	0.004954	-0.000488
7.420000	0.004537	-0.000773
7.430000	0.005066	-0.000854
7.440000	0.004028	0.000051
7.450000	0.004791	0.000132
7.460000	0.004690	0.000519
7.470000	0.004903	0.000682
7.480000	0.003977	0.000529
7.490000	0.004690	-0.000417
7.500000	0.004547	-0.000437
7.510000	0.004130	-0.000254
7.520000	0.004364	-0.000071
7.530000	0.003896	0.000529
7.540000	0.004242	-0.000977
7.550000	0.003377	0.000224
7.560000	0.004415	0.000010
7.570000	0.003571	-0.000346
7.580000	0.003784	-0.000346
7.590000	0.003611	0.000773
7.600000	0.004751	-0.000285
7.610000	0.003723	-0.000264
7.620000	0.004608	-0.000031
7.630000	0.004323	0.000254
7.640000	0.004242	0.000488
7.650000	0.004303	0.000407
7.660000	0.004049	-0.000041
7.670000	0.004303	0.000010
7.680000	0.003855	0.000498
7.690000	0.004720	-0.000000
7.700000	0.004140	-0.000661
7.710000	0.004588	-0.000336
7.720000	0.004578	0.001058
7.730000	0.005117	0.000132
7.740000	0.004456	-0.000427
7.750000	0.003774	-0.000549
7.760000	0.004171	-0.000539
7.770000	0.004354	-0.000702
7.780000	0.004618	-0.000519
7.790000	0.003733	0.000743
7.800000	0.004222	0.000081
7.810000	0.004334	0.000203
7.820000	0.004771	0.000234
7.830000	0.004334	-0.000071
7.840000	0.004486	0.000112
7.850000	0.004771	-0.000193
7.860000	0.003947	0.000244
7.870000	0.005096	0.000092
7.880000	0.003906	-0.000224
7.890000	0.004415	0.000285
7.900000	0.004334	-0.000346
7.910000	0.004496	-0.000407
7.920000	0.003540	-0.000102
7.930000	0.004812	0.000010
7.940000	0.004140	0.000244
7.950000	0.004293	0.000946
7.960000	0.004445	-0.000041
7.970000	0.004201	-0.000092
7.980000	0.004710	0.000468
7.990000	0.003489	0.000427
8.000000	0.004720	-0.000285
8.010000	0.004527	0.000224
8.020000	0.005249	-0.000387
8.030000	0.004110	0.000193
8.040000	0.004374	-0.000000
8.050000	0.004150	0.000214
8.060000	0.004384	0.000448
8.070000	0.003652	-0.000122
8.080000	0.003957	0.000366
8.090000	0.004862	0.000590
8.100000	0.003652	-0.000092
8.110000	0.005269	0.000712
8.120000	0.005035	-0.000315
8.130000	0.004669	0.000193
8.140000	0.004710	-0.000041
8.150000	0.004527	0.000051
8.160000	0.005035	0.000092
8.170000	0.004334	0.000031
8.180000	0.005432	0.000234
8.190000	0.004527	-0.000539
8.200000	0.004283	-0.000356
8.210000	0.004629	0.000366
8.220000	0.004364	0.000163
8.230000	0.003998	0.000315
8.240000	0.003876	0.000061
8.250000	0.004832	-0.000010
8.260000	0.004629	0.000203
8.270000	0.004578	0.000102
8.280000	0.004049	-0.000244
8.290000	0.004751	-0.000254
8.300000	0.004191	-0.000092
8.310000	0.004547	-0.000051
8.320000	0.004079	-0.000000
8.330000	0.004486	0.000000
8.340000	0.004618	-0.000244
8.350000	0.003672	-0.000621
8.360000	0.003550	-0.000417
8.370000	0.004150	0.000519
8.380000	0.004700	0.000366
8.390000	0.004506	0.000112
8.400000	0.004873	-0.000417
8.410000	0.003866	-0.000031
8.420000	0.004100	-0.000590
8.430000	0.005554	0.000682
8.440000	0.004506	-0.000295
8.450000	0.004211	0.000773
8.460000	0.003744	-0.000193
8.470000	0.003418	-0.000743
8.480000	0.004405	-0.000224
8.490000	0.004852	0.000244
8.500000	0.003784	-0.000315
8.510000	0.004974	0.000549
8.520000	0.004486	0.000366
8.530000	0.003672	-0.000295
8.540000	0.004049	-0.000600
8.550000	0.004751	-0.000132
8.560000	0.004283	-0.000132
8.570000	0.004130	0.000234
8.580000	0.004985	0.000092
8.590000	0.004740	-0.000478
8.600000	0.003703	0.000254
8.610000	0.003499	-0.000865
8.620000	0.003652	-0.000051
8.630000	0.004242	-0.000102
8.640000	0.003815	-0.000763
8.650000	0.003876	-0.000010
8.660000	0.004822	-0.000559
8.670000	0.003947	0.000458
8.680000	0.004567	0.000315
8.690000	0.004517	0.000234
8.700000	0.004873	0.000132
8.710000	0.004211	-0.000061
8.720000	0.004130	-0.000458
8.730000	0.004812	-0.000193
8.740000	0.005178	0.000305
8.750000	0.005290	-0.000153
8.760000	0.004344	0.000203
8.770000	0.004344	0.000061
8.780000	0.004049	0.000478
8.790000	0.004822	0.000275
8.800000	0.004567	0.000214
8.810000	0.003957	-0.000020
8.820000	0.004944	-0.000163
8.830000	0.004669	0.000458
8.840000	0.002960	0.000071
8.850000	0.004506	0.000234
8.860000	0.004578	0.000051
8.870000	0.004008	0.000051
8.880000	0.004374	-0.000376
8.890000	0.004039	0.000081
8.900000	0.004242	-0.000315
8.910000	0.004710	0.000376
8.920000	0.004598	0.000153
8.930000	0.004232	0.000020
8.940000	0.004944	0.000356
8.950000	0.004913	0.000061
8.960000	0.005442	0.000234
8.970000	0.005066	-0.000692
8.980000	0.004486	0.000132
8.990000	0.004415	-0.000509
9.000000	0.004181	0.000488
9.010000	0.004100	0.000153
9.020000	0.004466	0.000336
9.030000	0.004822	0.000153
9.040000	0.003550	-0.000122
9.050000	0.004740	-0.000254
9.060000	0.005463	0.000468
9.070000	0.004181	-0.000264
9.080000	0.004120	0.000071
9.090000	0.004893	0.000468
9.100000	0.005453	-0.000275
9.110000	0.003693	0.000326
9.120000	0.003459	-0.000183
9.130000	0.004100	0.000468
9.140000	0.004598	-0.000193
9.150000	0.003794	-0.000295
9.160000	0.004954	-0.000844
9.170000	0.004272	-0.000417
9.180000	0.003855	0.000356
9.190000	0.004690	-0.000132
9.200000	0.003977	-0.000285
9.210000	0.005442	-0.000183
9.220000	0.004852	-0.000051
9.230000	0.003967	0.000183
9.240000	0.004913	-0.000275
9.250000	0.004364	0.000448
9.260000	0.003855	-0.000041
9.270000	0.004445	-0.000061
9.280000	0.004730	-0.000081
9.290000	0.004720	-0.000142
9.300000	0.004781	-0.000163
9.310000	0.004791	0.000458
9.320000	0.004486	-0.000020
9.330000	0.004374	0.000356
9.340000	0.005269	-0.000559
9.350000	0.004690	-0.000478
9.360000	0.004629	-0.000468
9.370000	0.004364	0.000651
9.380000	0.003713	-0.000071
9.390000	0.003906	-0.000885
9.400000	0.004557	-0.000346
9.410000	0.004527	-0.000183
9.420000	0.004964	0.000010
9.430000	0.003855	0.000173
9.440000	0.004211	0.000244
9.450000	0.004242	0.000254
9.460000	0.004985	-0.000305
9.470000	0.004598	0.000692
9.480000	0.004018	-0.000295
9.490000	0.004985	-0.000458
9.500000	0.003815	0.000275
9.510000	0.003611	0.000305
9.520000	0.004323	-0.000315
9.530000	0.004822	0.000529
9.540000	0.003805	0.000549
9.550000	0.004567	0.000326
9.560000	0.004334	-0.000173
9.570000	0.003784	0.000092
9.580000	0.003825	-0.000142
9.590000	0.004557	0.001455
9.600000	0.004262	0.000509
9.610000	0.004110	0.000122
9.620000	0.004100	0.000081
9.630000	0.004201	-0.000041
9.640000	0.004598	-0.000234
9.650000	0.004435	-0.000214
9.660000	0.004120	-0.000234
9.670000	0.004405	-0.000448
9.680000	0.005046	0.000254
9.690000	0.004140	0.000549
9.700000	0.004781	0.000071
9.710000	0.004832	0.000163
9.720000	0.003611	0.000753
9.730000	0.004150	0.000488
9.740000	0.005391	0.000356
9.750000	0.004618	0.000000
9.760000	0.004354	0.000865
9.770000	0.005178	0.000641
9.780000	0.004110	-0.000142
9.790000	0.003713	-0.000132
9.800000	0.004395	0.000926
9.810000	0.003957	0.000020
9.820000	0.003723	0.000102
9.830000	0.004272	-0.000142
9.840000	0.004883	-0.000285
9.850000	0.004222	0.000092
9.860000	0.004537	0.000783
9.870000	0.005107	0.001180
9.880000	0.004710	0.000112
9.890000	0.004751	-0.000000
9.900000	0.004659	0.000224
9.910000	0.004751	0.000020
9.920000	0.005198	-0.000153
9.930000	0.004710	-0.000041
9.940000	0.004506	-0.000427
9.950000	0.004924	-0.001648
9.960000	0.004751	0.000203
9.970000	0.003998	-0.000051
9.980000	0.003967	0.000488
9.990000	0.004567	0.000793
10.000000	0.005005	0.000122
