UBB Dec12 1957 Average.d24 - THz Start: 187.69 mm, 1000 points, 10 fs - Pump Probe Time: 1.20 ps, Pump Motor Position: 95.2725 mm, 46 points, -50 fs - Wait: 400 ms -  Averages: 1 - Lock-In 1: 500 mV/mA, 100 ms - Lock-In 2: 500 mV/mA, 100 ms
0.010000	0.005575	-0.001078
0.020000	0.004720	-0.000712
0.030000	0.005086	-0.000509
0.040000	0.005280	-0.000203
0.050000	0.005005	0.000285
0.060000	0.004771	-0.000376
0.070000	0.004486	-0.000285
0.080000	0.004730	0.000051
0.090000	0.004466	0.000041
0.100000	0.003764	-0.000122
0.110000	0.004893	-0.000244
0.120000	0.005330	-0.000539
0.130000	0.004527	-0.000539
0.140000	0.005066	0.000631
0.150000	0.004639	-0.000295
0.160000	0.004649	0.000743
0.170000	0.004039	-0.000529
0.180000	0.004517	0.000397
0.190000	0.004812	-0.000081
0.200000	0.004629	-0.000397
0.210000	0.004740	-0.000702
0.220000	0.004435	-0.000682
0.230000	0.004181	-0.000417
0.240000	0.005290	0.000519
0.250000	0.004771	0.000132
0.260000	0.004618	0.000264
0.270000	0.004761	0.000142
0.280000	0.004486	0.000142
0.290000	0.004344	0.000417
0.300000	0.004608	-0.000631
0.310000	0.004049	-0.000010
0.320000	0.004761	-0.000559
0.330000	0.004120	-0.000305
0.340000	0.003652	0.000244
0.350000	0.004222	-0.000529
0.360000	0.004039	0.000051
0.370000	0.004496	-0.000468
0.380000	0.004710	-0.000417
0.390000	0.004995	0.000122
0.400000	0.004354	-0.000173
0.410000	0.004608	-0.000427
0.420000	0.004618	0.000458
0.430000	0.005056	0.000590
0.440000	0.004120	-0.000346
0.450000	0.004964	0.000132
0.460000	0.005107	-0.000173
0.470000	0.004283	0.000977
0.480000	0.004537	-0.000295
0.490000	0.004262	-0.000743
0.500000	0.004547	-0.000254
0.510000	0.004283	-0.000315
0.520000	0.004161	0.000580
0.530000	0.004903	-0.000305
0.540000	0.004425	-0.000631
0.550000	0.004140	0.000590
0.560000	0.004588	0.000458
0.570000	0.004801	0.000275
0.580000	0.004059	0.000346
0.590000	0.004995	0.000244
0.600000	0.003520	-0.000000
0.610000	0.004903	0.000193
0.620000	0.004313	0.000702
0.630000	0.004405	-0.000539
0.640000	0.004384	-0.000264
0.650000	0.005015	-0.000285
0.660000	0.004801	0.000702
0.670000	0.004100	0.000142
0.680000	0.004730	-0.000692
0.690000	0.004069	0.000061
0.700000	0.003744	0.000600
0.710000	0.004486	0.000203
0.720000	0.004629	0.000671
0.730000	0.004303	-0.000743
0.740000	0.005422	0.000651
0.750000	0.004496	-0.000214
0.760000	0.004710	-0.000417
0.770000	0.004476	-0.001099
0.780000	0.004740	0.000051
0.790000	0.004588	0.000234
0.800000	0.004496	-0.000163
0.810000	0.005534	0.000132
0.820000	0.005198	0.000529
0.830000	0.005147	-0.000020
0.840000	0.003988	-0.000010
0.850000	0.005107	0.000092
0.860000	0.005025	0.000570
0.870000	0.004283	-0.000092
0.880000	0.003744	-0.000020
0.890000	0.004425	-0.000732
0.900000	0.005575	-0.000824
0.910000	0.004771	-0.000010
0.920000	0.004506	-0.000092
0.930000	0.004720	-0.000193
0.940000	0.004598	-0.000336
0.950000	0.004527	0.000315
0.960000	0.004629	0.000183
0.970000	0.005157	0.000244
0.980000	0.004781	-0.000041
0.990000	0.004506	-0.000264
1.000000	0.004924	-0.000214
1.010000	0.005137	-0.000529
1.020000	0.004242	-0.000326
1.030000	0.004812	0.000305
1.040000	0.004883	-0.000570
1.050000	0.005178	-0.000244
1.060000	0.004822	0.000326
1.070000	0.004771	0.000519
1.080000	0.004710	-0.000081
1.090000	0.005178	-0.000346
1.100000	0.004964	0.000071
1.110000	0.004852	0.000071
1.120000	0.004883	-0.000031
1.130000	0.005147	-0.000092
1.140000	0.004832	-0.000112
1.150000	0.004537	-0.000153
1.160000	0.004883	-0.000417
1.170000	0.004974	-0.000295
1.180000	0.005412	-0.000041
1.190000	0.005107	-0.000671
1.200000	0.005168	0.000183
1.210000	0.005920	-0.000051
1.220000	0.004466	-0.000702
1.230000	0.004649	0.000407
1.240000	0.005259	0.000275
1.250000	0.006175	-0.000336
1.260000	0.006104	0.000692
1.270000	0.005544	0.000763
1.280000	0.005534	-0.000468
1.290000	0.005239	0.000031
1.300000	0.005829	0.000112
1.310000	0.006063	0.000905
1.320000	0.005788	0.000244
1.330000	0.006409	-0.000763
1.340000	0.006266	0.000529
1.350000	0.006388	0.000315
1.360000	0.006480	0.000732
1.370000	0.006805	-0.000112
1.380000	0.007670	0.000295
1.390000	0.006612	0.000112
1.400000	0.006795	0.000732
1.410000	0.005778	0.000600
1.420000	0.006419	0.000102
1.430000	0.007284	0.000132
1.440000	0.007609	-0.000020
1.450000	0.009928	0.000153
1.460000	0.014537	0.000549
1.470000	0.019603	0.002818
1.480000	0.026734	0.004222
1.490000	0.034119	0.006368
1.500000	0.035736	0.008433
1.510000	0.033030	0.009501
1.520000	0.023071	0.007100
1.530000	0.014699	0.007823
1.540000	-0.008341	0.000305
1.550000	-0.021159	-0.003611
1.560000	-0.031647	-0.010478
1.570000	-0.040843	-0.014750
1.580000	-0.041301	-0.015300
1.590000	-0.040589	-0.015900
1.600000	-0.032613	-0.010122
1.610000	-0.025706	-0.009369
1.620000	-0.019185	-0.004669
1.630000	-0.013367	-0.001892
1.640000	-0.008535	0.001078
1.650000	-0.004700	0.002604
1.660000	-0.001200	0.002797
1.670000	0.001027	0.002309
1.680000	0.003143	0.000600
1.690000	0.005137	-0.000071
1.700000	0.007365	-0.001088
1.710000	0.009908	-0.001750
1.720000	0.010681	-0.003764
1.730000	0.012207	-0.003591
1.740000	0.013265	-0.003815
1.750000	0.013601	-0.003693
1.760000	0.013367	-0.003845
1.770000	0.012990	-0.002238
1.780000	0.012624	-0.001343
1.790000	0.010925	-0.000407
1.800000	0.009837	0.001516
1.810000	0.009837	0.002492
1.820000	0.007670	0.003520
1.830000	0.007233	0.004456
1.840000	0.007457	0.005829
1.850000	0.007029	0.005575
1.860000	0.007070	0.005768
1.870000	0.007955	0.005422
1.880000	0.008179	0.004456
1.890000	0.009135	0.002950
1.900000	0.011088	0.001678
1.910000	0.011505	0.000193
1.920000	0.013204	-0.000376
1.930000	0.012024	-0.001597
1.940000	0.012624	-0.001750
1.950000	0.013936	-0.002421
1.960000	0.012726	-0.002045
1.970000	0.011770	-0.002584
1.980000	0.011078	-0.001801
1.990000	0.010122	-0.000549
2.000000	0.007924	0.000631
2.010000	0.007507	0.000326
2.020000	0.005981	0.001322
2.030000	0.005341	0.002126
2.040000	0.003947	0.003499
2.050000	0.004517	0.003723
2.060000	0.004161	0.003449
2.070000	0.004506	0.004028
2.080000	0.005412	0.003927
2.090000	0.006755	0.003174
2.100000	0.007060	0.001272
2.110000	0.007416	-0.000102
2.120000	0.008738	-0.000020
2.130000	0.008708	-0.001129
2.140000	0.009267	-0.001526
2.150000	0.009776	-0.002767
2.160000	0.009501	-0.002157
2.170000	0.009074	-0.001821
2.180000	0.009165	-0.002075
2.190000	0.008169	-0.001312
2.200000	0.007375	-0.000865
2.210000	0.005646	-0.000183
2.220000	0.004537	0.000509
2.230000	0.004924	0.001261
2.240000	0.003418	0.001699
2.250000	0.002594	0.001902
2.260000	0.002523	0.002380
2.270000	0.002391	0.002055
2.280000	0.003103	0.001872
2.290000	0.003377	0.001445
2.300000	0.003896	0.000437
2.310000	0.004567	0.000773
2.320000	0.005259	0.000417
2.330000	0.005981	-0.001272
2.340000	0.006602	-0.000885
2.350000	0.007375	-0.002157
2.360000	0.006999	-0.000621
2.370000	0.006592	-0.001099
2.380000	0.006917	-0.001516
2.390000	0.006541	-0.000773
2.400000	0.005748	-0.000132
2.410000	0.005290	-0.001689
2.420000	0.005737	0.000254
2.430000	0.004222	0.000315
2.440000	0.003357	0.001129
2.450000	0.002126	0.001160
2.460000	0.001648	0.001200
2.470000	0.002207	0.000743
2.480000	0.002157	0.001414
2.490000	0.002726	0.000783
2.500000	0.002533	0.001353
2.510000	0.002767	-0.000631
2.520000	0.002696	-0.000854
2.530000	0.003947	-0.000305
2.540000	0.004527	-0.001546
2.550000	0.004405	-0.002116
2.560000	0.005239	-0.001302
2.570000	0.006276	-0.001536
2.580000	0.006104	-0.001404
2.590000	0.006154	-0.001078
2.600000	0.006633	-0.001150
2.610000	0.005646	-0.000387
2.620000	0.005259	-0.000244
2.630000	0.004405	0.000092
2.640000	0.003845	0.000458
2.650000	0.003571	0.001048
2.660000	0.002391	0.000458
2.670000	0.002492	0.001099
2.680000	0.002380	0.000539
2.690000	0.001780	0.001139
2.700000	0.002218	-0.000468
2.710000	0.002828	0.000102
2.720000	0.003276	-0.000712
2.730000	0.003662	-0.001200
2.740000	0.003489	-0.001831
2.750000	0.004028	-0.001811
2.760000	0.004354	-0.001414
2.770000	0.004466	-0.001170
2.780000	0.004710	-0.000977
2.790000	0.005086	-0.001282
2.800000	0.004934	-0.000814
2.810000	0.004374	-0.001007
2.820000	0.004964	-0.000031
2.830000	0.004618	0.000183
2.840000	0.004130	0.000061
2.850000	0.003886	0.000570
2.860000	0.003825	0.000671
2.870000	0.003571	0.000122
2.880000	0.003530	0.000722
2.890000	0.003794	0.000529
2.900000	0.003550	0.000407
2.910000	0.003449	-0.000153
2.920000	0.004781	-0.000275
2.930000	0.003123	-0.000854
2.940000	0.004995	-0.000671
2.950000	0.004161	-0.000854
2.960000	0.005178	-0.001088
2.970000	0.005727	-0.000936
2.980000	0.005666	-0.001333
2.990000	0.004771	-0.000865
3.000000	0.004639	-0.000173
3.010000	0.005595	0.000081
3.020000	0.004354	-0.000010
3.030000	0.004985	0.000254
3.040000	0.004537	0.000275
3.050000	0.004039	0.000753
3.060000	0.003377	0.000437
3.070000	0.003815	0.000488
3.080000	0.003438	0.000112
3.090000	0.003479	0.000214
3.100000	0.003733	0.000549
3.110000	0.003682	-0.000000
3.120000	0.005137	-0.000844
3.130000	0.005046	-0.000305
3.140000	0.005625	-0.000549
3.150000	0.005605	-0.000102
3.160000	0.005788	-0.001607
3.170000	0.005391	-0.000509
3.180000	0.005483	-0.000458
3.190000	0.005249	-0.000173
3.200000	0.005239	-0.000234
3.210000	0.005035	-0.000346
3.220000	0.005157	0.000203
3.230000	0.004496	-0.000295
3.240000	0.003744	0.001322
3.250000	0.004384	0.000875
3.260000	0.004659	0.000600
3.270000	0.004954	0.000895
3.280000	0.004771	0.001139
3.290000	0.004862	0.000824
3.300000	0.004639	-0.000224
3.310000	0.004710	0.000071
3.320000	0.004537	0.000092
3.330000	0.005127	0.000142
3.340000	0.005778	-0.001068
3.350000	0.005605	-0.000824
3.360000	0.006053	-0.000793
3.370000	0.005931	-0.001129
3.380000	0.005534	-0.000966
3.390000	0.005554	0.000153
3.400000	0.006063	0.000081
3.410000	0.004629	0.000590
3.420000	0.004669	0.000163
3.430000	0.005208	0.000417
3.440000	0.003601	0.000468
3.450000	0.004150	0.000631
3.460000	0.004384	0.000743
3.470000	0.004222	0.000570
3.480000	0.004384	-0.000031
3.490000	0.004801	0.000153
3.500000	0.004028	0.000722
3.510000	0.005534	0.000051
3.520000	0.005514	0.000956
3.530000	0.005666	-0.000163
3.540000	0.005768	-0.000519
3.550000	0.006388	-0.000488
3.560000	0.006592	-0.000326
3.570000	0.006429	-0.001058
3.580000	0.006134	-0.000112
3.590000	0.006276	-0.000529
3.600000	0.005524	0.000539
3.610000	0.004527	-0.000102
3.620000	0.005056	0.000203
3.630000	0.004720	-0.000092
3.640000	0.004059	-0.000112
3.650000	0.003967	0.000600
3.660000	0.003794	0.000092
3.670000	0.003642	0.000315
3.680000	0.003805	0.000336
3.690000	0.004852	0.000793
3.700000	0.004547	0.000702
3.710000	0.004567	0.000376
3.720000	0.005686	-0.000102
3.730000	0.005035	-0.000437
3.740000	0.005391	-0.000112
3.750000	0.005707	0.000448
3.760000	0.005961	-0.000020
3.770000	0.005605	-0.000519
3.780000	0.005636	-0.000641
3.790000	0.005676	-0.000142
3.800000	0.005809	-0.000203
3.810000	0.004913	-0.000041
3.820000	0.005544	0.000041
3.830000	0.005371	0.000509
3.840000	0.003591	0.000621
3.850000	0.003611	0.000946
3.860000	0.004486	-0.000010
3.870000	0.004934	0.000376
3.880000	0.004598	0.000641
3.890000	0.003784	0.000641
3.900000	0.004700	0.000254
3.910000	0.005269	0.000763
3.920000	0.005452	0.000132
3.930000	0.005310	-0.000590
3.940000	0.005575	0.000336
3.950000	0.005707	0.000031
3.960000	0.005849	0.000031
3.970000	0.005046	0.000132
3.980000	0.005768	-0.000570
3.990000	0.005290	0.000814
4.000000	0.005727	-0.000326
4.010000	0.004740	0.000285
4.020000	0.005514	-0.000600
4.030000	0.003896	0.000132
4.040000	0.004120	0.000010
4.050000	0.005066	-0.000682
4.060000	0.005015	-0.000448
4.070000	0.004781	-0.000305
4.080000	0.004720	0.000570
4.090000	0.004384	0.000346
4.100000	0.003906	0.000234
4.110000	0.004822	-0.000214
4.120000	0.004130	-0.000753
4.130000	0.004995	0.000061
4.140000	0.005025	-0.000244
4.150000	0.005127	-0.000285
4.160000	0.005310	-0.000631
4.170000	0.004801	-0.000641
4.180000	0.004100	0.000081
4.190000	0.004130	0.000193
4.200000	0.005178	-0.000804
4.210000	0.004740	0.000203
4.220000	0.004893	0.000071
4.230000	0.004303	-0.000722
4.240000	0.004659	0.000671
4.250000	0.004700	-0.000285
4.260000	0.004435	0.000081
4.270000	0.004415	-0.000071
4.280000	0.004547	0.000621
4.290000	0.004669	0.000173
4.300000	0.005025	0.000285
4.310000	0.004954	0.000264
4.320000	0.004740	0.000112
4.330000	0.004832	0.000448
4.340000	0.005208	0.000102
4.350000	0.005341	0.000854
4.360000	0.005605	-0.000366
4.370000	0.004924	0.001394
4.380000	0.004730	0.000498
4.390000	0.005442	-0.000000
4.400000	0.005219	-0.001038
4.410000	0.004913	0.000631
4.420000	0.003428	-0.000468
4.430000	0.003835	0.000549
4.440000	0.005086	0.000529
4.450000	0.004985	0.000661
4.460000	0.004873	0.000549
4.470000	0.004323	0.000214
4.480000	0.004527	0.000448
4.490000	0.004344	0.000010
4.500000	0.005025	0.000203
4.510000	0.005147	-0.000295
4.520000	0.005493	-0.000356
4.530000	0.005198	-0.000356
4.540000	0.004903	0.000000
4.550000	0.005483	0.000112
4.560000	0.004883	-0.000478
4.570000	0.005575	-0.000722
4.580000	0.004801	-0.000437
4.590000	0.005188	-0.000936
4.600000	0.004466	-0.000142
4.610000	0.005544	0.000671
4.620000	0.004659	0.000102
4.630000	0.005320	-0.000000
4.640000	0.005076	0.000112
4.650000	0.005646	-0.000051
4.660000	0.005107	-0.000163
4.670000	0.004740	-0.000071
4.680000	0.004557	0.000193
4.690000	0.004334	-0.000224
4.700000	0.004913	0.000061
4.710000	0.005310	0.000254
4.720000	0.005361	-0.000458
4.730000	0.004283	0.000539
4.740000	0.005290	-0.000468
4.750000	0.005870	0.000010
4.760000	0.004822	0.000051
4.770000	0.004913	-0.000193
4.780000	0.005320	-0.000173
4.790000	0.004415	-0.000000
4.800000	0.004517	0.000570
4.810000	0.005249	0.000295
4.820000	0.005157	-0.000244
4.830000	0.005351	0.000336
4.840000	0.004913	-0.000061
4.850000	0.005188	0.000356
4.860000	0.004771	0.000193
4.870000	0.004995	0.000142
4.880000	0.004425	0.000264
4.890000	0.004801	0.000488
4.900000	0.005178	-0.000661
4.910000	0.004944	-0.000753
4.920000	0.004303	-0.000600
4.930000	0.004659	-0.000763
4.940000	0.005046	-0.000376
4.950000	0.005524	-0.000529
4.960000	0.005463	-0.000244
4.970000	0.004974	-0.001495
4.980000	0.005157	0.000102
4.990000	0.004588	0.000193
5.000000	0.005259	0.000000
5.010000	0.004700	-0.000041
5.020000	0.004700	0.000132
5.030000	0.004883	0.000397
5.040000	0.005076	-0.000295
5.050000	0.004934	0.000275
5.060000	0.003947	-0.000264
5.070000	0.004364	-0.000132
5.080000	0.004781	-0.000478
5.090000	0.005341	0.000702
5.100000	0.005422	-0.000224
5.110000	0.005157	-0.000732
5.120000	0.004964	-0.000448
5.130000	0.004893	-0.000753
5.140000	0.005798	-0.000570
5.150000	0.005310	-0.000570
5.160000	0.005666	-0.000529
5.170000	0.005249	0.000315
5.180000	0.005178	-0.000590
5.190000	0.004578	-0.000356
5.200000	0.004649	0.000427
5.210000	0.004547	0.000102
5.220000	0.005035	0.000020
5.230000	0.004445	0.000519
5.240000	0.004639	-0.000102
5.250000	0.004445	0.000977
5.260000	0.004862	-0.000163
5.270000	0.004527	-0.000020
5.280000	0.004618	0.001068
5.290000	0.004395	0.000844
5.300000	0.004456	-0.000264
5.310000	0.005015	0.000427
5.320000	0.004771	0.000173
5.330000	0.004211	0.000651
5.340000	0.005809	-0.000671
5.350000	0.004893	0.000478
5.360000	0.005341	-0.000610
5.370000	0.006134	0.000142
5.380000	0.004659	-0.000071
5.390000	0.004710	-0.000041
5.400000	0.005076	0.000071
5.410000	0.005686	0.000000
5.420000	0.005086	-0.000163
5.430000	0.004598	0.000264
5.440000	0.004303	-0.000153
5.450000	0.005005	0.000356
5.460000	0.003876	0.000183
5.470000	0.004130	-0.000539
5.480000	0.005575	0.000407
5.490000	0.004567	-0.000275
5.500000	0.004903	0.000234
5.510000	0.004659	0.000702
5.520000	0.004995	0.000336
5.530000	0.004710	-0.000397
5.540000	0.004344	-0.000102
5.550000	0.004527	0.000081
5.560000	0.005168	-0.000203
5.570000	0.005005	0.000153
5.580000	0.004486	-0.000387
5.590000	0.004954	0.000031
5.600000	0.004883	-0.000559
5.610000	0.004740	-0.000183
5.620000	0.005208	-0.000600
5.630000	0.004964	0.000376
5.640000	0.004598	-0.000020
5.650000	0.004781	0.000254
5.660000	0.005157	-0.000356
5.670000	0.004059	-0.000142
5.680000	0.004201	-0.000193
5.690000	0.004272	-0.000224
5.700000	0.004374	0.000051
5.710000	0.005269	0.000346
5.720000	0.004964	-0.000041
5.730000	0.004598	-0.000193
5.740000	0.004608	-0.000092
5.750000	0.005249	-0.000834
5.760000	0.005483	-0.000631
5.770000	0.005066	-0.000549
5.780000	0.005137	0.000153
5.790000	0.005219	-0.000295
5.800000	0.005107	0.000234
5.810000	0.004211	-0.000254
5.820000	0.004974	0.000427
5.830000	0.004679	0.000234
5.840000	0.004629	0.000580
5.850000	0.004384	-0.000600
5.860000	0.004700	-0.000295
5.870000	0.005371	-0.000244
5.880000	0.005096	-0.000102
5.890000	0.005168	-0.000417
5.900000	0.004384	0.000112
5.910000	0.004171	-0.000712
5.920000	0.004893	-0.000448
5.930000	0.004740	0.000061
5.940000	0.004629	-0.000132
5.950000	0.005076	-0.000061
5.960000	0.005076	0.000376
5.970000	0.005198	0.000631
5.980000	0.005483	0.000214
5.990000	0.005117	0.000051
6.000000	0.005870	-0.000142
6.010000	0.003988	-0.000163
6.020000	0.005310	0.000407
6.030000	0.004435	-0.000346
6.040000	0.005239	0.000163
6.050000	0.004252	0.000753
6.060000	0.005147	0.000092
6.070000	0.004618	-0.000224
6.080000	0.003906	0.000661
6.090000	0.004079	0.000264
6.100000	0.004344	-0.000427
6.110000	0.004130	-0.000631
6.120000	0.005056	-0.000031
6.130000	0.004690	-0.000173
6.140000	0.005005	-0.000061
6.150000	0.005056	-0.000051
6.160000	0.005025	-0.000458
6.170000	0.004710	-0.000041
6.180000	0.005208	-0.000214
6.190000	0.004435	-0.000092
6.200000	0.004832	0.000224
6.210000	0.005025	0.000570
6.220000	0.005259	-0.000081
6.230000	0.004781	0.000570
6.240000	0.004903	0.000193
6.250000	0.004272	0.000244
6.260000	0.004761	0.000173
6.270000	0.005341	0.000254
6.280000	0.004466	0.000102
6.290000	0.004598	-0.000122
6.300000	0.005056	-0.000122
6.310000	0.005025	-0.000773
6.320000	0.004445	-0.000387
6.330000	0.004924	-0.000132
6.340000	0.004395	-0.000122
6.350000	0.003723	-0.000081
6.360000	0.004761	-0.000061
6.370000	0.004801	-0.000743
6.380000	0.005524	0.000275
6.390000	0.005198	0.000285
6.400000	0.004974	-0.000102
6.410000	0.004720	0.000621
6.420000	0.004049	0.000081
6.430000	0.004832	0.000305
6.440000	0.004537	0.000122
6.450000	0.004934	0.000010
6.460000	0.004974	-0.000539
6.470000	0.003693	0.000102
6.480000	0.005178	-0.000142
6.490000	0.004456	-0.000275
6.500000	0.004232	-0.000122
6.510000	0.004547	-0.000427
6.520000	0.006083	-0.000163
6.530000	0.005310	-0.000020
6.540000	0.005035	-0.000519
6.550000	0.004781	-0.000275
6.560000	0.005168	0.000193
6.570000	0.004354	-0.000661
6.580000	0.003845	0.000844
6.590000	0.004161	-0.000132
6.600000	0.004486	-0.000631
6.610000	0.005493	-0.000275
6.620000	0.003713	0.000631
6.630000	0.004924	0.001231
6.640000	0.003164	0.000682
6.650000	0.004476	-0.000122
6.660000	0.004476	0.000570
6.670000	0.005809	-0.000956
6.680000	0.004435	-0.000000
6.690000	0.004334	0.000010
6.700000	0.005076	0.000366
6.710000	0.005107	-0.000285
6.720000	0.005076	0.000509
6.730000	0.004751	0.000173
6.740000	0.004425	-0.000173
6.750000	0.004384	-0.000234
6.760000	0.005147	-0.000651
6.770000	0.004974	0.000285
6.780000	0.004751	-0.000682
6.790000	0.003916	0.000387
6.800000	0.004506	-0.000824
6.810000	0.005371	-0.000997
6.820000	0.004374	-0.000865
6.830000	0.004700	-0.000214
6.840000	0.003825	0.000712
6.850000	0.003764	-0.000519
6.860000	0.004344	0.000010
6.870000	0.004283	0.000376
6.880000	0.004832	0.000244
6.890000	0.005229	-0.000051
6.900000	0.005259	0.000102
6.910000	0.004557	0.000173
6.920000	0.005371	0.000203
6.930000	0.005442	0.000793
6.940000	0.005453	-0.000875
6.950000	0.005615	0.000092
6.960000	0.004862	0.000234
6.970000	0.005208	0.000224
6.980000	0.005127	0.000600
6.990000	0.004354	0.000244
7.000000	0.003866	0.000651
7.010000	0.005056	0.000203
7.020000	0.005859	0.000061
7.030000	0.004018	-0.000041
7.040000	0.003835	0.000315
7.050000	0.004293	0.000336
7.060000	0.005025	0.000051
7.070000	0.004618	0.000203
7.080000	0.004150	0.000743
7.090000	0.004649	0.000254
7.100000	0.005656	-0.000580
7.110000	0.004934	-0.000458
7.120000	0.004842	0.000010
7.130000	0.004608	-0.000478
7.140000	0.005544	-0.000183
7.150000	0.003815	0.000000
7.160000	0.004008	-0.000153
7.170000	0.005320	-0.000031
7.180000	0.004842	-0.000315
7.190000	0.004506	-0.000509
7.200000	0.005595	-0.000854
7.210000	0.004710	0.000458
7.220000	0.005086	0.000244
7.230000	0.004608	-0.000092
7.240000	0.004710	-0.000539
7.250000	0.004588	-0.000346
7.260000	0.005178	-0.000722
7.270000	0.005066	-0.000244
7.280000	0.005534	0.000336
7.290000	0.004049	-0.000010
7.300000	0.005025	-0.000326
7.310000	0.005066	-0.000387
7.320000	0.005168	0.000092
7.330000	0.004730	-0.000326
7.340000	0.004812	-0.000173
7.350000	0.004954	-0.000051
7.360000	0.004649	-0.000153
7.370000	0.004842	0.000305
7.380000	0.004293	-0.000376
7.390000	0.004334	0.000478
7.400000	0.003947	0.000041
7.410000	0.003916	-0.000722
7.420000	0.004822	0.000214
7.430000	0.004710	0.000183
7.440000	0.004771	0.000478
7.450000	0.005025	0.000051
7.460000	0.004323	0.000234
7.470000	0.004557	-0.000315
7.480000	0.004771	0.000234
7.490000	0.004130	-0.000275
7.500000	0.005056	-0.000112
7.510000	0.004679	0.000071
7.520000	0.005127	-0.000244
7.530000	0.004801	-0.000437
7.540000	0.004384	-0.000458
7.550000	0.005096	-0.000437
7.560000	0.004801	0.000824
7.570000	0.003682	0.000244
7.580000	0.003866	-0.000824
7.590000	0.003754	-0.000844
7.600000	0.003143	0.000081
7.610000	0.004445	-0.000437
7.620000	0.004557	-0.000254
7.630000	0.004781	0.000285
7.640000	0.004191	-0.000081
7.650000	0.004445	-0.000224
7.660000	0.004669	-0.000448
7.670000	0.004679	-0.000275
7.680000	0.004771	-0.000183
7.690000	0.004740	-0.000458
7.700000	0.005046	-0.000092
7.710000	0.004751	-0.000336
7.720000	0.004781	-0.000224
7.730000	0.004679	-0.000264
7.740000	0.005300	-0.000844
7.750000	0.005035	0.000356
7.760000	0.005025	-0.000326
7.770000	0.004985	-0.000458
7.780000	0.004791	-0.000468
7.790000	0.004303	0.000437
7.800000	0.005137	0.000458
7.810000	0.004873	-0.000376
7.820000	0.004944	0.000478
7.830000	0.004445	-0.000712
7.840000	0.003713	-0.000305
7.850000	0.004354	0.000092
7.860000	0.004954	0.000000
7.870000	0.004649	-0.000102
7.880000	0.004944	-0.000417
7.890000	0.004669	0.000112
7.900000	0.004964	-0.000122
7.910000	0.004913	-0.000437
7.920000	0.004913	0.000081
7.930000	0.004710	-0.000193
7.940000	0.004578	0.000559
7.950000	0.004211	-0.000285
7.960000	0.004608	0.000173
7.970000	0.004669	0.000570
7.980000	0.003438	0.000488
7.990000	0.004120	0.000417
8.000000	0.005188	0.000275
8.010000	0.004496	-0.000132
8.020000	0.005025	0.000183
8.030000	0.005005	0.000132
8.040000	0.005280	0.000214
8.050000	0.005269	-0.000305
8.060000	0.005676	-0.000285
8.070000	0.005666	-0.000203
8.080000	0.005025	-0.000183
8.090000	0.005157	-0.000732
8.100000	0.004883	-0.000092
8.110000	0.005615	0.000539
8.120000	0.005086	-0.000580
8.130000	0.005107	-0.000488
8.140000	0.005015	-0.000397
8.150000	0.003733	0.000702
8.160000	0.005402	0.000234
8.170000	0.004903	0.001109
8.180000	0.004578	0.000570
8.190000	0.005524	-0.000102
8.200000	0.004466	-0.000112
8.210000	0.005147	-0.000163
8.220000	0.004913	-0.000122
8.230000	0.004842	0.000305
8.240000	0.004964	-0.000468
8.250000	0.004354	-0.000305
8.260000	0.005147	-0.000092
8.270000	0.004201	0.000326
8.280000	0.004456	-0.000376
8.290000	0.004822	0.000214
8.300000	0.004567	0.000905
8.310000	0.004740	0.000142
8.320000	0.004527	0.000142
8.330000	0.004761	-0.000020
8.340000	0.004496	-0.000559
8.350000	0.003977	-0.000336
8.360000	0.004466	0.000763
8.370000	0.004974	-0.000041
8.380000	0.004679	-0.000153
8.390000	0.004669	0.000682
8.400000	0.004710	0.000763
8.410000	0.004873	0.000305
8.420000	0.005208	-0.000102
8.430000	0.005748	-0.000224
8.440000	0.004344	-0.000254
8.450000	0.004496	-0.000153
8.460000	0.004262	0.000448
8.470000	0.004334	-0.000509
8.480000	0.003977	0.000498
8.490000	0.004466	-0.000641
8.500000	0.003784	0.000092
8.510000	0.003957	0.000559
8.520000	0.004608	0.000539
8.530000	0.004771	-0.000010
8.540000	0.003560	-0.000315
8.550000	0.003693	-0.000570
8.560000	0.004801	-0.000346
8.570000	0.004791	-0.000153
8.580000	0.004415	-0.000020
8.590000	0.003560	0.000041
8.600000	0.004913	-0.000376
8.610000	0.004924	-0.000214
8.620000	0.004740	-0.000326
8.630000	0.004476	0.000254
8.640000	0.004415	0.000468
8.650000	0.004456	-0.000092
8.660000	0.004801	-0.000590
8.670000	0.004679	-0.000183
8.680000	0.005615	-0.000041
8.690000	0.005351	-0.000051
8.700000	0.005239	-0.000244
8.710000	0.003642	0.000763
8.720000	0.005056	-0.000153
8.730000	0.005666	-0.000275
8.740000	0.005086	-0.000153
8.750000	0.004669	-0.000153
8.760000	0.004161	0.000122
8.770000	0.004781	0.000305
8.780000	0.004629	-0.000214
8.790000	0.004944	0.000264
8.800000	0.003998	0.000285
8.810000	0.004110	0.000275
8.820000	0.005086	0.000285
8.830000	0.004710	-0.000020
8.840000	0.004852	-0.000112
8.850000	0.004527	0.000020
8.860000	0.004944	0.000092
8.870000	0.004466	-0.000448
8.880000	0.004801	0.000285
8.890000	0.003682	-0.000081
8.900000	0.006124	-0.000163
8.910000	0.004466	-0.000814
8.920000	0.004344	-0.000437
8.930000	0.004608	-0.000600
8.940000	0.005117	0.000305
8.950000	0.005269	-0.000214
8.960000	0.004232	0.000122
8.970000	0.004547	0.000743
8.980000	0.004974	0.000448
8.990000	0.005046	-0.000621
9.000000	0.004618	-0.000488
9.010000	0.004130	0.000102
9.020000	0.003998	0.000539
9.030000	0.004089	-0.000387
9.040000	0.004964	0.000142
9.050000	0.005595	-0.000305
9.060000	0.005229	0.000142
9.070000	0.004690	0.000834
9.080000	0.004791	-0.000264
9.090000	0.003082	0.000224
9.100000	0.005137	0.000366
9.110000	0.004893	0.000458
9.120000	0.005107	0.000783
9.130000	0.004374	-0.000173
9.140000	0.004791	0.000132
9.150000	0.004873	0.000804
9.160000	0.005422	0.000295
9.170000	0.005188	-0.000122
9.180000	0.004822	0.000132
9.190000	0.005371	-0.000336
9.200000	0.004557	0.000407
9.210000	0.005076	0.000631
9.220000	0.004588	-0.000173
9.230000	0.004547	0.000183
9.240000	0.005381	-0.000763
9.250000	0.004567	0.000244
9.260000	0.004659	-0.000315
9.270000	0.004028	-0.000631
9.280000	0.004110	0.000234
9.290000	0.004252	0.000173
9.300000	0.004578	-0.000224
9.310000	0.004547	0.000203
9.320000	0.004130	-0.000193
9.330000	0.004110	0.001048
9.340000	0.004832	0.000041
9.350000	0.004964	0.000041
9.360000	0.004649	-0.000468
9.370000	0.004974	-0.000458
9.380000	0.004852	-0.000173
9.390000	0.005147	-0.000193
9.400000	0.005066	-0.000010
9.410000	0.005157	0.000854
9.420000	0.004903	-0.000610
9.430000	0.004598	0.000132
9.440000	0.004262	-0.001211
9.450000	0.004344	-0.000061
9.460000	0.003632	-0.001353
9.470000	0.003601	0.000509
9.480000	0.002848	-0.000234
9.490000	0.004089	0.000590
9.500000	0.004506	0.000173
9.510000	0.004364	-0.000661
9.520000	0.004191	0.000641
9.530000	0.004374	0.000112
9.540000	0.004862	-0.000041
9.550000	0.003713	0.000346
9.560000	0.004161	-0.000844
9.570000	0.004934	0.000458
9.580000	0.004364	0.000478
9.590000	0.003550	-0.000407
9.600000	0.003774	-0.000458
9.610000	0.003682	0.000183
9.620000	0.003021	-0.000102
9.630000	0.004456	-0.000407
9.640000	0.005035	-0.000132
9.650000	0.004883	-0.000183
9.660000	0.004486	-0.000671
9.670000	0.004751	-0.000244
9.680000	0.003855	-0.000142
9.690000	0.005697	-0.000437
9.700000	0.004161	0.000387
9.710000	0.004629	-0.000631
9.720000	0.004486	-0.000376
9.730000	0.004751	-0.000173
9.740000	0.004395	-0.000071
9.750000	0.004924	0.000305
9.760000	0.005300	0.000122
9.770000	0.004578	-0.000244
9.780000	0.004720	0.000203
9.790000	0.004934	0.000061
9.800000	0.005137	0.000387
9.810000	0.004039	0.000702
9.820000	0.003449	-0.000102
9.830000	0.004191	-0.000142
9.840000	0.004771	-0.000173
9.850000	0.005239	0.000163
9.860000	0.004466	-0.000966
9.870000	0.004852	-0.000661
9.880000	0.004384	-0.000651
9.890000	0.004364	-0.000427
9.900000	0.005168	-0.000559
9.910000	0.004801	0.000488
9.920000	0.004822	-0.000112
9.930000	0.003754	-0.000132
9.940000	0.004547	-0.000071
9.950000	0.004649	0.000214
9.960000	0.005168	0.000112
9.970000	0.005208	0.000305
9.980000	0.005096	-0.000122
9.990000	0.005107	0.001221
10.000000	0.004476	-0.000031
