UBB Dec12 2046 Average.d24 - THz Start: 187.69 mm, 1000 points, 10 fs - Pump Probe Time: 1.45 ps, Pump Motor Position: 95.2350 mm, 46 points, -50 fs - Wait: 400 ms -  Averages: 1 - Lock-In 1: 500 mV/mA, 100 ms - Lock-In 2: 500 mV/mA, 100 ms
0.010000	0.004588	-0.000031
0.020000	0.004903	0.000315
0.030000	0.004629	-0.000448
0.040000	0.005157	-0.000539
0.050000	0.004944	0.000488
0.060000	0.005330	0.000081
0.070000	0.005686	-0.000092
0.080000	0.005137	-0.000264
0.090000	0.005310	0.000529
0.100000	0.005341	-0.000122
0.110000	0.005422	0.000153
0.120000	0.005127	-0.000590
0.130000	0.005290	-0.000315
0.140000	0.004639	-0.000010
0.150000	0.005046	-0.000468
0.160000	0.004924	-0.000000
0.170000	0.005168	-0.000824
0.180000	0.005330	0.000041
0.190000	0.004944	0.000173
0.200000	0.005636	-0.000651
0.210000	0.005147	0.000336
0.220000	0.004751	0.000041
0.230000	0.004618	-0.000692
0.240000	0.004537	-0.000020
0.250000	0.005361	0.000356
0.260000	0.005605	-0.000275
0.270000	0.004832	0.000153
0.280000	0.005076	0.000173
0.290000	0.005351	-0.000041
0.300000	0.005463	0.000071
0.310000	0.004588	-0.000224
0.320000	0.004883	-0.000346
0.330000	0.005656	-0.000163
0.340000	0.004913	0.000092
0.350000	0.005666	0.000478
0.360000	0.005096	-0.000061
0.370000	0.005300	-0.000326
0.380000	0.004354	-0.000305
0.390000	0.004974	0.000682
0.400000	0.004791	-0.000153
0.410000	0.004395	-0.000376
0.420000	0.004761	0.000478
0.430000	0.005432	-0.000193
0.440000	0.005086	-0.000153
0.450000	0.004842	-0.000071
0.460000	0.004974	-0.000488
0.470000	0.005076	-0.000122
0.480000	0.004690	0.000824
0.490000	0.004791	0.000427
0.500000	0.004903	-0.000203
0.510000	0.005381	-0.000102
0.520000	0.004974	-0.000224
0.530000	0.005381	-0.000041
0.540000	0.005381	-0.000112
0.550000	0.005320	0.000214
0.560000	0.004690	0.000356
0.570000	0.005015	-0.000549
0.580000	0.004161	0.000173
0.590000	0.004730	0.000112
0.600000	0.004191	0.000580
0.610000	0.004557	-0.000092
0.620000	0.005300	0.000763
0.630000	0.004893	-0.000427
0.640000	0.005442	0.000356
0.650000	0.004964	-0.000305
0.660000	0.005259	0.000570
0.670000	0.004262	-0.000661
0.680000	0.004150	-0.000305
0.690000	0.005005	0.000122
0.700000	0.004720	-0.000478
0.710000	0.005035	0.000051
0.720000	0.005066	-0.000498
0.730000	0.004822	-0.000122
0.740000	0.003601	-0.000173
0.750000	0.005147	-0.000519
0.760000	0.004893	0.000305
0.770000	0.004059	-0.000020
0.780000	0.004374	-0.000356
0.790000	0.004649	-0.000285
0.800000	0.004527	0.000112
0.810000	0.004761	0.000448
0.820000	0.004649	-0.000254
0.830000	0.005188	-0.000051
0.840000	0.004384	-0.000061
0.850000	0.004720	-0.000061
0.860000	0.005107	-0.000692
0.870000	0.005483	-0.000305
0.880000	0.005239	0.000031
0.890000	0.005503	-0.000183
0.900000	0.005035	-0.000580
0.910000	0.005076	-0.000305
0.920000	0.004344	0.000326
0.930000	0.004415	0.000254
0.940000	0.004313	0.000031
0.950000	0.005432	0.000071
0.960000	0.004527	-0.000183
0.970000	0.004211	-0.000387
0.980000	0.004751	-0.000132
0.990000	0.004598	0.000041
1.000000	0.005117	-0.000061
1.010000	0.004313	-0.000254
1.020000	0.004862	0.000153
1.030000	0.004588	-0.000702
1.040000	0.004679	-0.000092
1.050000	0.003703	0.000051
1.060000	0.004903	-0.000132
1.070000	0.005147	-0.000264
1.080000	0.005015	-0.000041
1.090000	0.005910	0.000153
1.100000	0.004903	-0.000163
1.110000	0.005229	-0.000183
1.120000	0.004517	0.000387
1.130000	0.005198	-0.000234
1.140000	0.004669	-0.000071
1.150000	0.004059	0.000437
1.160000	0.006154	0.000142
1.170000	0.004669	-0.000285
1.180000	0.005503	-0.000092
1.190000	0.005432	0.000061
1.200000	0.005625	0.000295
1.210000	0.006093	0.000010
1.220000	0.006144	0.000203
1.230000	0.005544	0.000407
1.240000	0.005625	-0.000031
1.250000	0.006124	0.000417
1.260000	0.005636	-0.000315
1.270000	0.005066	-0.000020
1.280000	0.006165	-0.000031
1.290000	0.006276	-0.000234
1.300000	0.006104	-0.000112
1.310000	0.006144	0.000743
1.320000	0.006378	0.000326
1.330000	0.005778	0.000712
1.340000	0.006175	0.000234
1.350000	0.005748	-0.000010
1.360000	0.006775	0.000122
1.370000	0.006297	0.000722
1.380000	0.006409	0.000488
1.390000	0.006368	0.000305
1.400000	0.006816	0.000773
1.410000	0.006643	0.000590
1.420000	0.006836	0.000732
1.430000	0.006785	0.000498
1.440000	0.007029	0.000264
1.450000	0.007813	0.000641
1.460000	0.009959	0.000519
1.470000	0.013275	0.001312
1.480000	0.018016	0.002696
1.490000	0.022146	0.004018
1.500000	0.026561	0.004303
1.510000	0.028788	0.006460
1.520000	0.029450	0.006226
1.530000	0.024323	0.004272
1.540000	0.021088	0.004313
1.550000	0.012553	0.003489
1.560000	-0.001434	0.000081
1.570000	-0.015411	-0.003764
1.580000	-0.027629	-0.007029
1.590000	-0.040731	-0.013306
1.600000	-0.043162	-0.014445
1.610000	-0.041392	-0.014547
1.620000	-0.034434	-0.013275
1.630000	-0.026082	-0.009684
1.640000	-0.017202	-0.004578
1.650000	-0.010122	-0.000112
1.660000	-0.005554	0.002248
1.670000	-0.002563	0.004018
1.680000	0.000031	0.003479
1.690000	0.002614	0.001353
1.700000	0.005310	0.000712
1.710000	0.006999	-0.001017
1.720000	0.008555	-0.002797
1.730000	0.010763	-0.002472
1.740000	0.012451	-0.004201
1.750000	0.012899	-0.003957
1.760000	0.014191	-0.004262
1.770000	0.013407	-0.003337
1.780000	0.012960	-0.002808
1.790000	0.011861	-0.001597
1.800000	0.011678	0.000427
1.810000	0.010284	0.001119
1.820000	0.009318	0.002991
1.830000	0.008342	0.004669
1.840000	0.007568	0.005514
1.850000	0.007538	0.005442
1.860000	0.007477	0.005636
1.870000	0.007640	0.005361
1.880000	0.008026	0.005514
1.890000	0.008158	0.003347
1.900000	0.009084	0.002818
1.910000	0.010081	0.001780
1.920000	0.010549	0.000905
1.930000	0.011648	-0.001363
1.940000	0.012828	-0.001068
1.950000	0.011973	-0.001536
1.960000	0.012238	-0.000916
1.970000	0.011790	-0.000743
1.980000	0.011576	-0.001475
1.990000	0.010702	-0.001495
2.000000	0.010234	-0.001261
2.010000	0.008667	0.000539
2.020000	0.007670	0.001994
2.030000	0.006989	0.002370
2.040000	0.005483	0.003560
2.050000	0.004639	0.004120
2.060000	0.003988	0.003479
2.070000	0.005198	0.003652
2.080000	0.005778	0.003052
2.090000	0.006470	0.003072
2.100000	0.005931	0.002584
2.110000	0.007162	0.001740
2.120000	0.006978	0.000437
2.130000	0.007273	-0.000295
2.140000	0.008382	-0.000854
2.150000	0.008993	-0.000743
2.160000	0.009572	-0.001495
2.170000	0.009206	-0.001251
2.180000	0.009054	-0.002055
2.190000	0.008372	-0.001801
2.200000	0.007782	-0.001007
2.210000	0.007233	-0.000814
2.220000	0.006002	0.000071
2.230000	0.005666	0.000600
2.240000	0.004456	0.001424
2.250000	0.003733	0.001923
2.260000	0.003499	0.001973
2.270000	0.003215	0.001648
2.280000	0.002869	0.002492
2.290000	0.003103	0.001658
2.300000	0.004313	0.001577
2.310000	0.004486	0.001211
2.320000	0.004883	0.001038
2.330000	0.005432	0.000010
2.340000	0.005727	-0.000865
2.350000	0.006571	-0.001363
2.360000	0.006999	-0.001465
2.370000	0.006897	-0.001485
2.380000	0.006816	-0.001760
2.390000	0.006358	-0.001729
2.400000	0.006663	-0.000977
2.410000	0.005473	-0.001150
2.420000	0.004995	-0.000875
2.430000	0.003916	-0.000407
2.440000	0.004629	-0.000498
2.450000	0.002665	0.000427
2.460000	0.001953	-0.000743
2.470000	0.002075	0.001577
2.480000	0.001933	0.000671
2.490000	0.002309	0.000417
2.500000	0.001821	0.000732
2.510000	0.002930	0.000682
2.520000	0.003031	0.000102
2.530000	0.003764	-0.000773
2.540000	0.004517	-0.001038
2.550000	0.004649	-0.001506
2.560000	0.004171	-0.001099
2.570000	0.005280	-0.001790
2.580000	0.005503	-0.001170
2.590000	0.005483	-0.001170
2.600000	0.005890	-0.000773
2.610000	0.005056	-0.000763
2.620000	0.004191	-0.000631
2.630000	0.004425	0.000793
2.640000	0.003520	-0.000183
2.650000	0.003571	0.000071
2.660000	0.003499	0.000844
2.670000	0.003428	0.000448
2.680000	0.002614	0.000437
2.690000	0.002574	-0.000264
2.700000	0.001984	0.000905
2.710000	0.002950	0.000346
2.720000	0.002858	-0.000458
2.730000	0.002665	-0.000671
2.740000	0.003296	-0.000570
2.750000	0.003316	-0.001383
2.760000	0.003530	-0.001709
2.770000	0.003703	-0.001556
2.780000	0.003947	-0.001892
2.790000	0.004659	-0.002177
2.800000	0.003693	-0.001272
2.810000	0.004781	-0.000814
2.820000	0.004191	-0.000692
2.830000	0.004730	-0.000498
2.840000	0.003428	-0.000437
2.850000	0.004140	0.000356
2.860000	0.003896	0.000488
2.870000	0.003164	0.000315
2.880000	0.004476	0.000285
2.890000	0.003774	0.000397
2.900000	0.003164	0.000712
2.910000	0.003398	0.000997
2.920000	0.002930	0.000376
2.930000	0.004201	-0.000153
2.940000	0.003957	-0.000671
2.950000	0.003988	-0.000712
2.960000	0.004496	-0.000946
2.970000	0.005046	-0.000966
2.980000	0.004679	-0.001506
2.990000	0.003896	-0.001048
3.000000	0.005381	-0.001038
3.010000	0.004730	-0.000397
3.020000	0.004476	-0.000448
3.030000	0.004883	0.000885
3.040000	0.004344	0.000326
3.050000	0.004334	0.000651
3.060000	0.003754	0.000224
3.070000	0.003998	0.000529
3.080000	0.004384	0.000326
3.090000	0.004649	0.001078
3.100000	0.005341	0.000387
3.110000	0.004669	0.000010
3.120000	0.004659	0.000132
3.130000	0.004873	-0.000732
3.140000	0.005351	-0.000071
3.150000	0.005636	-0.000916
3.160000	0.005615	-0.000712
3.170000	0.004598	-0.000529
3.180000	0.005412	-0.000092
3.190000	0.005666	-0.000549
3.200000	0.004730	0.000071
3.210000	0.004801	-0.000173
3.220000	0.005391	0.000254
3.230000	0.005198	0.001180
3.240000	0.004578	-0.000102
3.250000	0.005422	0.000671
3.260000	0.004079	0.000437
3.270000	0.004252	0.000692
3.280000	0.004395	0.000600
3.290000	0.005046	0.000783
3.300000	0.005117	-0.000031
3.310000	0.004974	0.000051
3.320000	0.005676	0.000051
3.330000	0.005137	-0.000254
3.340000	0.005188	-0.000468
3.350000	0.005371	-0.000427
3.360000	0.005473	-0.000336
3.370000	0.005666	-0.000743
3.380000	0.005686	-0.000031
3.390000	0.005259	0.000122
3.400000	0.005625	-0.000804
3.410000	0.005280	0.000031
3.420000	0.005727	0.000549
3.430000	0.004598	0.000498
3.440000	0.004730	-0.000081
3.450000	0.004690	0.000193
3.460000	0.005229	0.000559
3.470000	0.005025	-0.000336
3.480000	0.005117	0.000153
3.490000	0.005544	0.000173
3.500000	0.005636	0.000224
3.510000	0.005503	0.000112
3.520000	0.005320	0.001058
3.530000	0.005849	-0.000539
3.540000	0.006338	-0.000610
3.550000	0.005198	0.000102
3.560000	0.006165	-0.000509
3.570000	0.006195	-0.000437
3.580000	0.005330	-0.000631
3.590000	0.005839	0.000163
3.600000	0.005280	-0.000468
3.610000	0.005310	0.000173
3.620000	0.005158	-0.000132
3.630000	0.005442	-0.000285
3.640000	0.004222	0.000753
3.650000	0.004313	-0.000224
3.660000	0.004985	0.000285
3.670000	0.004730	0.000397
3.680000	0.004303	-0.000041
3.690000	0.004435	0.000031
3.700000	0.005239	0.000112
3.710000	0.005249	0.000621
3.720000	0.005442	0.000020
3.730000	0.005371	0.000142
3.740000	0.005076	-0.000580
3.750000	0.004852	-0.000519
3.760000	0.005412	-0.000753
3.770000	0.005493	0.000102
3.780000	0.005157	-0.000783
3.790000	0.005534	-0.000092
3.800000	0.005371	0.000234
3.810000	0.005402	0.000468
3.820000	0.004710	-0.000275
3.830000	0.004374	0.000661
3.840000	0.004303	0.000285
3.850000	0.004476	0.000651
3.860000	0.004252	0.000020
3.870000	0.004873	0.000305
3.880000	0.004486	0.000702
3.890000	0.004934	0.000031
3.900000	0.004801	0.000468
3.910000	0.004862	0.000844
3.920000	0.004415	-0.000529
3.930000	0.005391	-0.000478
3.940000	0.004954	-0.000244
3.950000	0.006032	-0.000458
3.960000	0.005351	-0.000865
3.970000	0.004384	-0.000712
3.980000	0.005371	0.000081
3.990000	0.005351	-0.000122
4.000000	0.004476	0.000102
4.010000	0.004557	-0.000509
4.020000	0.004771	0.000122
4.030000	0.004527	0.000854
4.040000	0.005117	0.000275
4.050000	0.004801	0.000600
4.060000	0.004608	0.000641
4.070000	0.004547	0.000315
4.080000	0.004354	0.000722
4.090000	0.004211	0.000722
4.100000	0.004618	0.000193
4.110000	0.004323	0.000295
4.120000	0.003957	-0.000814
4.130000	0.004171	-0.000397
4.140000	0.004486	0.000305
4.150000	0.004496	0.000203
4.160000	0.004893	-0.000224
4.170000	0.005758	-0.000214
4.180000	0.006266	-0.000153
4.190000	0.005768	-0.000163
4.200000	0.005035	-0.000264
4.210000	0.005259	-0.000071
4.220000	0.005585	-0.000285
4.230000	0.005188	0.000153
4.240000	0.004771	0.000102
4.250000	0.004710	-0.000264
4.260000	0.004578	0.000875
4.270000	0.003764	0.000315
4.280000	0.005330	0.000793
4.290000	0.004425	0.000020
4.300000	0.005351	0.000356
4.310000	0.004730	-0.000051
4.320000	0.004547	0.000498
4.330000	0.005320	0.000407
4.340000	0.004018	-0.000102
4.350000	0.004700	-0.000987
4.360000	0.005168	-0.000285
4.370000	0.005086	-0.000092
4.380000	0.005798	-0.000397
4.390000	0.004608	-0.000977
4.400000	0.004486	-0.000163
4.410000	0.004303	-0.000356
4.420000	0.004822	0.000031
4.430000	0.005290	0.000458
4.440000	0.005208	0.000305
4.450000	0.005005	0.000214
4.460000	0.005381	0.000254
4.470000	0.005646	0.000631
4.480000	0.004293	0.000987
4.490000	0.004191	-0.000376
4.500000	0.004547	-0.000031
4.510000	0.005137	0.000031
4.520000	0.003855	0.000387
4.530000	0.004974	0.000153
4.540000	0.005219	-0.000254
4.550000	0.005239	-0.000743
4.560000	0.004974	-0.000142
4.570000	0.004873	-0.000285
4.580000	0.005178	-0.000549
4.590000	0.005157	0.000102
4.600000	0.005056	-0.000387
4.610000	0.005157	0.000214
4.620000	0.004954	0.000702
4.630000	0.005117	-0.000285
4.640000	0.005066	0.000153
4.650000	0.004791	0.000071
4.660000	0.004598	0.000285
4.670000	0.004435	0.000173
4.680000	0.005575	-0.000092
4.690000	0.004944	-0.000051
4.700000	0.003845	0.000498
4.710000	0.003703	-0.000600
4.720000	0.004079	-0.000997
4.730000	0.004557	-0.000621
4.740000	0.006266	-0.000519
4.750000	0.005320	-0.000621
4.760000	0.004720	-0.000458
4.770000	0.004791	-0.000763
4.780000	0.004995	-0.000865
4.790000	0.005320	0.000092
4.800000	0.005605	0.000559
4.810000	0.004801	0.000010
4.820000	0.004242	0.000417
4.830000	0.005005	0.000346
4.840000	0.004700	0.000142
4.850000	0.003428	0.000529
4.860000	0.004862	0.000285
4.870000	0.004954	0.000092
4.880000	0.005056	-0.000203
4.890000	0.005310	0.001007
4.900000	0.005035	0.000193
4.910000	0.005412	-0.000509
4.920000	0.004924	-0.001068
4.930000	0.005493	-0.000631
4.940000	0.004883	-0.000722
4.950000	0.005086	0.000509
4.960000	0.005249	-0.000203
4.970000	0.004618	-0.000427
4.980000	0.004842	-0.000153
4.990000	0.004303	0.000203
5.000000	0.005310	-0.000916
5.010000	0.004181	0.000254
5.020000	0.004801	0.001027
5.030000	0.004262	-0.000112
5.040000	0.004639	-0.000163
5.050000	0.004547	-0.000346
5.060000	0.004862	-0.000793
5.070000	0.004445	0.000753
5.080000	0.004079	0.000804
5.090000	0.004995	0.000641
5.100000	0.005870	0.000397
5.110000	0.005727	0.000142
5.120000	0.005168	-0.000875
5.130000	0.005463	-0.000264
5.140000	0.005056	0.000244
5.150000	0.005544	0.000336
5.160000	0.005961	-0.000142
5.170000	0.005575	-0.000183
5.180000	0.006124	0.000122
5.190000	0.005351	0.000275
5.200000	0.004517	0.000153
5.210000	0.004944	0.000356
5.220000	0.004374	0.000478
5.230000	0.004425	0.000254
5.240000	0.004222	-0.000509
5.250000	0.003550	-0.000722
5.260000	0.004201	0.000427
5.270000	0.004995	-0.000478
5.280000	0.004161	-0.000061
5.290000	0.004252	-0.000132
5.300000	0.004171	0.000549
5.310000	0.004506	-0.000631
5.320000	0.004903	0.000254
5.330000	0.005656	-0.000275
5.340000	0.005035	0.000285
5.350000	0.004435	-0.000468
5.360000	0.005117	-0.000366
5.370000	0.005127	-0.000397
5.380000	0.005951	-0.000020
5.390000	0.005575	0.000010
5.400000	0.005381	-0.000193
5.410000	0.004303	0.000102
5.420000	0.005727	-0.000153
5.430000	0.005412	-0.000712
5.440000	0.005219	0.000153
5.450000	0.003947	0.000519
5.460000	0.004669	0.000092
5.470000	0.005025	0.000071
5.480000	0.004720	0.000356
5.490000	0.005005	-0.000885
5.500000	0.005086	-0.000417
5.510000	0.005330	0.000031
5.520000	0.005290	-0.000427
5.530000	0.005117	0.000183
5.540000	0.004862	0.000458
5.550000	0.004974	-0.000132
5.560000	0.005168	0.000000
5.570000	0.005025	-0.000295
5.580000	0.005310	-0.000397
5.590000	0.004303	-0.000437
5.600000	0.005381	-0.000295
5.610000	0.004181	-0.000346
5.620000	0.004893	0.000509
5.630000	0.004395	0.000437
5.640000	0.004405	0.000387
5.650000	0.005127	0.000010
5.660000	0.005422	0.000112
5.670000	0.004354	-0.000376
5.680000	0.004639	-0.000132
5.690000	0.004506	0.000183
5.700000	0.005056	-0.000142
5.710000	0.004435	-0.000071
5.720000	0.005076	0.000285
5.730000	0.005534	-0.000142
5.740000	0.005035	0.000275
5.750000	0.004801	-0.000305
5.760000	0.005168	-0.000132
5.770000	0.005219	0.000153
5.780000	0.004669	-0.000336
5.790000	0.004954	0.000651
5.800000	0.005656	0.000641
5.810000	0.005178	-0.000193
5.820000	0.004710	0.000071
5.830000	0.004801	-0.000081
5.840000	0.004862	0.000417
5.850000	0.004893	-0.000722
5.860000	0.004791	-0.000285
5.870000	0.005117	0.000336
5.880000	0.004262	0.000132
5.890000	0.005463	-0.000173
5.900000	0.003845	-0.000041
5.910000	0.004527	-0.000031
5.920000	0.004028	0.000183
5.930000	0.004008	0.001048
5.940000	0.004262	-0.000295
5.950000	0.006022	0.000570
5.960000	0.004456	0.000061
5.970000	0.003225	-0.000397
5.980000	0.003947	0.000712
5.990000	0.004883	0.000305
6.000000	0.005503	-0.000427
6.010000	0.004649	-0.000244
6.020000	0.005015	0.000346
6.030000	0.004964	0.000448
6.040000	0.005432	0.000142
6.050000	0.005066	-0.000061
6.060000	0.005656	0.000061
6.070000	0.005198	0.000102
6.080000	0.004567	-0.000173
6.090000	0.005320	0.000763
6.100000	0.004201	0.000478
6.110000	0.005391	0.000020
6.120000	0.004140	-0.000966
6.130000	0.004974	-0.000193
6.140000	0.005748	-0.000122
6.150000	0.004476	0.000173
6.160000	0.004649	0.000407
6.170000	0.004629	-0.001088
6.180000	0.004862	0.000743
6.190000	0.004618	-0.000244
6.200000	0.005290	0.000407
6.210000	0.005514	-0.000448
6.220000	0.005035	0.000061
6.230000	0.005310	0.000132
6.240000	0.004669	-0.000387
6.250000	0.005422	0.000254
6.260000	0.004435	-0.000234
6.270000	0.005066	-0.000142
6.280000	0.004852	0.000458
6.290000	0.004913	-0.000081
6.300000	0.004445	0.000214
6.310000	0.005391	0.000081
6.320000	0.004120	-0.000326
6.330000	0.004740	-0.000346
6.340000	0.004161	0.000173
6.350000	0.004150	-0.001536
6.360000	0.004303	-0.000041
6.370000	0.004456	-0.000875
6.380000	0.004730	0.000448
6.390000	0.005076	-0.000020
6.400000	0.004486	0.000051
6.410000	0.005615	-0.000214
6.420000	0.005076	-0.000132
6.430000	0.004598	0.000203
6.440000	0.004588	0.000559
6.450000	0.004740	-0.000041
6.460000	0.005554	-0.000315
6.470000	0.005534	0.000956
6.480000	0.004791	0.000173
6.490000	0.004222	0.000092
6.500000	0.005524	0.000458
6.510000	0.005035	0.000610
6.520000	0.003927	0.000234
6.530000	0.005676	0.000315
6.540000	0.006012	0.000732
6.550000	0.005005	-0.000071
6.560000	0.005697	-0.000244
6.570000	0.004588	-0.000712
6.580000	0.004649	-0.000285
6.590000	0.005198	-0.000509
6.600000	0.005534	0.000010
6.610000	0.005168	0.000417
6.620000	0.004720	-0.000580
6.630000	0.004669	0.000519
6.640000	0.004842	-0.000529
6.650000	0.004791	0.000051
6.660000	0.005127	-0.000285
6.670000	0.004842	-0.000224
6.680000	0.005859	0.000041
6.690000	0.004934	0.000132
6.700000	0.005158	0.000641
6.710000	0.005219	-0.000031
6.720000	0.004496	0.000051
6.730000	0.005117	-0.000020
6.740000	0.005117	0.000000
6.750000	0.004537	-0.000387
6.760000	0.004598	0.000346
6.770000	0.004659	-0.000468
6.780000	0.004883	0.000081
6.790000	0.005391	0.000326
6.800000	0.005219	-0.000224
6.810000	0.004700	0.000285
6.820000	0.004435	0.000529
6.830000	0.005412	0.000020
6.840000	0.004049	0.000102
6.850000	0.005005	0.000081
6.860000	0.005015	-0.000295
6.870000	0.004944	-0.000153
6.880000	0.003754	-0.000224
6.890000	0.004374	-0.000071
6.900000	0.004252	0.000437
6.910000	0.004384	0.000081
6.920000	0.004323	0.000061
6.930000	0.004649	0.000570
6.940000	0.004924	-0.000824
6.950000	0.005859	-0.000295
6.960000	0.005391	0.000173
6.970000	0.004883	0.000682
6.980000	0.005066	-0.000102
6.990000	0.004171	-0.000000
7.000000	0.004364	-0.000356
7.010000	0.004537	0.000661
7.020000	0.005229	-0.000356
7.030000	0.005147	-0.000621
7.040000	0.004903	0.000519
7.050000	0.004669	-0.000010
7.060000	0.005178	0.000407
7.070000	0.004039	0.000122
7.080000	0.003937	-0.000336
7.090000	0.004588	0.000010
7.100000	0.005178	-0.000041
7.110000	0.005107	0.000203
7.120000	0.003398	-0.000264
7.130000	0.004486	-0.000417
7.140000	0.004883	-0.000814
7.150000	0.004222	-0.000326
7.160000	0.005524	-0.000132
7.170000	0.005269	0.000142
7.180000	0.004801	-0.000020
7.190000	0.005748	-0.000102
7.200000	0.004913	-0.000254
7.210000	0.005249	-0.000081
7.220000	0.004781	-0.000478
7.230000	0.004476	0.000346
7.240000	0.004242	-0.000834
7.250000	0.004578	0.000244
7.260000	0.004456	-0.000549
7.270000	0.004466	0.000112
7.280000	0.005219	-0.000031
7.290000	0.004873	0.000214
7.300000	0.004801	0.000559
7.310000	0.004445	-0.000010
7.320000	0.005046	0.000356
7.330000	0.004954	0.000183
7.340000	0.004578	-0.000183
7.350000	0.004161	-0.000112
7.360000	0.005320	0.000539
7.370000	0.004862	-0.000163
7.380000	0.004771	0.000254
7.390000	0.004201	-0.000041
7.400000	0.005208	-0.000651
7.410000	0.004934	-0.000224
7.420000	0.004456	0.000010
7.430000	0.004954	-0.000092
7.440000	0.004486	0.000539
7.450000	0.004659	-0.000234
7.460000	0.005178	0.000031
7.470000	0.004425	-0.000224
7.480000	0.004690	-0.000132
7.490000	0.004873	0.000285
7.500000	0.004730	-0.000041
7.510000	0.004608	-0.000854
7.520000	0.004323	-0.000153
7.530000	0.004445	0.000142
7.540000	0.005096	0.000183
7.550000	0.004954	0.000122
7.560000	0.004445	-0.000153
7.570000	0.004171	-0.000071
7.580000	0.004608	-0.000183
7.590000	0.004852	0.000498
7.600000	0.004323	0.000346
7.610000	0.004069	0.000031
7.620000	0.003632	-0.000356
7.630000	0.004303	-0.000427
7.640000	0.004862	-0.000224
7.650000	0.004323	-0.000122
7.660000	0.004130	-0.000041
7.670000	0.004913	0.000092
7.680000	0.004801	-0.000376
7.690000	0.005005	-0.000122
7.700000	0.004862	-0.000020
7.710000	0.005127	-0.000783
7.720000	0.005127	-0.000051
7.730000	0.005168	-0.000031
7.740000	0.004730	-0.000092
7.750000	0.004730	0.000549
7.760000	0.004700	-0.000254
7.770000	0.004985	-0.000153
7.780000	0.004873	-0.000529
7.790000	0.004700	-0.000122
7.800000	0.004374	0.000315
7.810000	0.004873	-0.000081
7.820000	0.003560	0.000295
7.830000	0.005035	-0.000437
7.840000	0.004344	0.000387
7.850000	0.004395	-0.000376
7.860000	0.005157	0.000875
7.870000	0.004506	-0.000041
7.880000	0.004690	0.001709
7.890000	0.005636	0.000458
7.900000	0.004486	-0.000041
7.910000	0.004934	-0.000020
7.920000	0.004771	-0.000315
7.930000	0.005056	-0.000173
7.940000	0.005229	0.000315
7.950000	0.004303	-0.000326
7.960000	0.005259	-0.000193
7.970000	0.004618	0.000224
7.980000	0.004293	0.000641
7.990000	0.005330	0.000529
8.000000	0.004547	0.000071
8.010000	0.005249	-0.000041
8.020000	0.004049	-0.000498
8.030000	0.005910	-0.000376
8.040000	0.004812	0.000824
8.050000	0.005351	0.000682
8.060000	0.005656	0.000285
8.070000	0.005127	0.000458
8.080000	0.005015	0.000356
8.090000	0.004344	0.001261
8.100000	0.005493	0.000326
8.110000	0.004659	-0.000173
8.120000	0.005046	0.000051
8.130000	0.005798	-0.000264
8.140000	0.005198	-0.000214
8.150000	0.005290	0.000570
8.160000	0.004954	-0.000356
8.170000	0.005198	-0.000142
8.180000	0.005208	-0.000112
8.190000	0.005107	0.000702
8.200000	0.005412	0.000102
8.210000	0.004995	0.000081
8.220000	0.004334	-0.000315
8.230000	0.005595	-0.000651
8.240000	0.004913	-0.000488
8.250000	0.004598	-0.000224
8.260000	0.004354	-0.000163
8.270000	0.005137	0.000071
8.280000	0.004995	-0.000478
8.290000	0.004690	0.000061
8.300000	0.004415	-0.000102
8.310000	0.005208	-0.000376
8.320000	0.004578	0.001495
8.330000	0.005534	-0.000183
8.340000	0.004211	0.000254
8.350000	0.005168	-0.000051
8.360000	0.004690	-0.000102
8.370000	0.005229	-0.000722
8.380000	0.004903	0.000509
8.390000	0.005453	-0.000061
8.400000	0.005066	-0.000366
8.410000	0.004944	0.000020
8.420000	0.005239	0.000407
8.430000	0.005310	0.000112
8.440000	0.004781	0.000244
8.450000	0.004985	0.000142
8.460000	0.005290	-0.000448
8.470000	0.005371	-0.000254
8.480000	0.005920	0.000051
8.490000	0.004985	-0.000173
8.500000	0.004913	-0.000031
8.510000	0.004679	0.000916
8.520000	0.005096	-0.000071
8.530000	0.005096	-0.000183
8.540000	0.004567	0.000315
8.550000	0.004456	-0.000071
8.560000	0.004944	-0.000132
8.570000	0.005737	0.000203
8.580000	0.005269	0.000112
8.590000	0.004934	0.000061
8.600000	0.004384	-0.000051
8.610000	0.004812	-0.000264
8.620000	0.005056	-0.000183
8.630000	0.005188	0.000132
8.640000	0.004964	0.000254
8.650000	0.004781	0.000112
8.660000	0.005127	-0.000102
8.670000	0.005198	-0.000427
8.680000	0.004985	-0.000295
8.690000	0.004771	-0.001048
8.700000	0.005127	0.000610
8.710000	0.004588	-0.000631
8.720000	0.004506	0.000071
8.730000	0.004730	0.000407
8.740000	0.005341	0.000275
8.750000	0.004913	-0.000071
8.760000	0.004466	0.000264
8.770000	0.005229	-0.000112
8.780000	0.004740	0.000142
8.790000	0.004181	-0.000305
8.800000	0.004639	0.000041
8.810000	0.005269	0.000397
8.820000	0.005168	-0.000509
8.830000	0.005117	-0.000275
8.840000	0.004700	0.000458
8.850000	0.005280	-0.000031
8.860000	0.005168	0.000549
8.870000	0.004639	0.000753
8.880000	0.004903	-0.000234
8.890000	0.004618	-0.000214
8.900000	0.004578	-0.000112
8.910000	0.003998	-0.000916
8.920000	0.004710	0.000529
8.930000	0.004751	-0.000671
8.940000	0.004201	-0.000559
8.950000	0.004323	0.000041
8.960000	0.004934	-0.000315
8.970000	0.004873	-0.000214
8.980000	0.004964	-0.000092
8.990000	0.004893	-0.000142
9.000000	0.004496	-0.000671
9.010000	0.004517	-0.000193
9.020000	0.005147	0.000285
9.030000	0.005330	0.000051
9.040000	0.004089	0.000173
9.050000	0.005096	-0.000122
9.060000	0.004934	-0.000173
9.070000	0.005127	0.000061
9.080000	0.004690	-0.000529
9.090000	0.005788	-0.000132
9.100000	0.004517	0.001211
9.110000	0.004150	-0.000244
9.120000	0.005778	-0.000966
9.130000	0.005402	0.000142
9.140000	0.005727	-0.000244
9.150000	0.005147	0.000010
9.160000	0.004873	-0.000295
9.170000	0.005402	-0.000142
9.180000	0.005686	0.000346
9.190000	0.004547	0.000041
9.200000	0.005015	0.000285
9.210000	0.005015	0.000112
9.220000	0.005025	0.000641
9.230000	0.005219	-0.000081
9.240000	0.004161	-0.000295
9.250000	0.004344	-0.000031
9.260000	0.004405	0.000020
9.270000	0.005402	-0.000437
9.280000	0.004201	-0.000000
9.290000	0.004588	-0.000020
9.300000	0.004262	0.000743
9.310000	0.004557	0.000275
9.320000	0.004964	0.000590
9.330000	0.005503	-0.000142
9.340000	0.004700	0.000163
9.350000	0.004456	-0.000326
9.360000	0.004364	0.000326
9.370000	0.004201	-0.000193
9.380000	0.004639	-0.000010
9.390000	0.003754	-0.000122
9.400000	0.004527	0.000163
9.410000	0.004110	-0.000092
9.420000	0.004771	0.000285
9.430000	0.005412	0.000173
9.440000	0.005137	-0.000234
9.450000	0.004913	0.000020
9.460000	0.004852	-0.000559
9.470000	0.005432	0.000031
9.480000	0.004242	-0.000031
9.490000	0.005666	0.000549
9.500000	0.004323	0.000020
9.510000	0.004700	-0.000234
9.520000	0.004547	-0.000488
9.530000	0.004089	-0.000000
9.540000	0.005564	0.000112
9.550000	0.004801	-0.000437
9.560000	0.004964	-0.000051
9.570000	0.004425	0.000051
9.580000	0.004313	-0.000132
9.590000	0.005402	0.000580
9.600000	0.004924	0.000427
9.610000	0.004313	0.000142
9.620000	0.004547	-0.000356
9.630000	0.005503	-0.000275
9.640000	0.005046	0.000549
9.650000	0.004323	0.000163
9.660000	0.004964	-0.000153
9.670000	0.004140	0.000132
9.680000	0.004242	0.000488
9.690000	0.003520	-0.000763
9.700000	0.004690	-0.000966
9.710000	0.005056	-0.000122
9.720000	0.004445	0.000326
9.730000	0.004740	-0.000214
9.740000	0.004557	0.000275
9.750000	0.004059	-0.000346
9.760000	0.005402	0.000559
9.770000	0.004862	-0.001465
9.780000	0.004496	-0.000865
9.790000	0.004781	0.000163
9.800000	0.004344	0.000743
9.810000	0.004801	-0.000397
9.820000	0.004801	-0.000387
9.830000	0.005066	-0.000061
9.840000	0.005290	-0.000000
9.850000	0.004445	-0.000804
9.860000	0.005117	-0.000102
9.870000	0.004771	0.000244
9.880000	0.004588	0.000671
9.890000	0.005229	0.000305
9.900000	0.004812	0.000509
9.910000	0.005066	0.000387
9.920000	0.005168	-0.000031
9.930000	0.004974	-0.000519
9.940000	0.004496	-0.000905
9.950000	0.004283	0.000031
9.960000	0.004527	0.000092
9.970000	0.004954	-0.000122
9.980000	0.005198	-0.000112
9.990000	0.004700	0.000010
10.000000	0.004262	-0.000020
