UBB Dec12 2315 Average.d24 - THz Start: 187.69 mm, 1000 points, 10 fs - Pump Probe Time: 2.20 ps, Pump Motor Position: 95.1225 mm, 46 points, -50 fs - Wait: 400 ms -  Averages: 1 - Lock-In 1: 500 mV/mA, 100 ms - Lock-In 2: 500 mV/mA, 100 ms
0.010000	0.004873	0.000275
0.020000	0.004690	-0.000498
0.030000	0.004944	0.000153
0.040000	0.005290	-0.000631
0.050000	0.005066	-0.000112
0.060000	0.004232	0.000234
0.070000	0.004883	-0.000112
0.080000	0.005422	0.000031
0.090000	0.005076	-0.000102
0.100000	0.005676	0.000244
0.110000	0.005575	-0.000254
0.120000	0.004873	0.000264
0.130000	0.005269	-0.000275
0.140000	0.004639	-0.000234
0.150000	0.005188	-0.000295
0.160000	0.005290	-0.000183
0.170000	0.004486	-0.000132
0.180000	0.005412	0.000112
0.190000	0.005371	0.000397
0.200000	0.004985	-0.000336
0.210000	0.005768	0.000193
0.220000	0.005819	-0.000203
0.230000	0.004924	-0.000071
0.240000	0.004700	0.000326
0.250000	0.005615	0.000448
0.260000	0.005157	0.000305
0.270000	0.004730	0.000163
0.280000	0.005391	-0.000010
0.290000	0.005381	-0.000254
0.300000	0.004893	0.000020
0.310000	0.005432	0.000671
0.320000	0.005514	-0.000081
0.330000	0.004873	-0.000315
0.340000	0.004547	0.000010
0.350000	0.004496	-0.000478
0.360000	0.004974	0.000529
0.370000	0.004995	-0.000346
0.380000	0.004883	0.000549
0.390000	0.005341	0.000112
0.400000	0.006124	-0.000326
0.410000	0.004700	-0.000254
0.420000	0.005229	-0.000305
0.430000	0.004710	-0.000163
0.440000	0.005035	0.000010
0.450000	0.005249	-0.000071
0.460000	0.005259	0.000244
0.470000	0.005412	-0.000275
0.480000	0.005269	-0.000722
0.490000	0.005412	0.000661
0.500000	0.005188	-0.000264
0.510000	0.005249	-0.000244
0.520000	0.005707	-0.000478
0.530000	0.005870	-0.000142
0.540000	0.005554	-0.000966
0.550000	0.004506	-0.000193
0.560000	0.005361	-0.000407
0.570000	0.005025	-0.000722
0.580000	0.005137	-0.000549
0.590000	0.004710	0.000234
0.600000	0.005290	-0.000529
0.610000	0.004964	0.000153
0.620000	0.005137	-0.000234
0.630000	0.004740	-0.000193
0.640000	0.005280	0.000295
0.650000	0.004862	0.000336
0.660000	0.005412	-0.000417
0.670000	0.005035	0.000071
0.680000	0.005198	-0.000183
0.690000	0.004618	-0.000020
0.700000	0.005412	-0.000203
0.710000	0.004496	0.000559
0.720000	0.005697	0.000458
0.730000	0.005544	-0.000509
0.740000	0.004852	0.000061
0.750000	0.004985	-0.000102
0.760000	0.005107	0.000305
0.770000	0.004791	-0.000509
0.780000	0.004791	0.000295
0.790000	0.004781	-0.000153
0.800000	0.004832	0.000071
0.810000	0.005168	0.000183
0.820000	0.004883	0.000010
0.830000	0.004537	0.000295
0.840000	0.005259	0.000000
0.850000	0.004873	-0.000275
0.860000	0.004751	0.000081
0.870000	0.004924	-0.000142
0.880000	0.005310	0.000142
0.890000	0.004862	0.000203
0.900000	0.005035	-0.000020
0.910000	0.004852	0.000102
0.920000	0.004649	-0.000295
0.930000	0.004903	0.000020
0.940000	0.004629	-0.000254
0.950000	0.005086	0.000010
0.960000	0.005005	-0.000244
0.970000	0.005229	-0.000387
0.980000	0.004527	-0.000153
0.990000	0.005351	-0.000031
1.000000	0.004608	0.000417
1.010000	0.005117	-0.000122
1.020000	0.005239	0.000478
1.030000	0.004629	-0.000254
1.040000	0.004995	0.000061
1.050000	0.005137	0.000315
1.060000	0.005066	-0.000102
1.070000	0.005035	0.000092
1.080000	0.005025	-0.000214
1.090000	0.005330	-0.000224
1.100000	0.005015	-0.000020
1.110000	0.004659	0.000031
1.120000	0.004862	0.000153
1.130000	0.005819	-0.000173
1.140000	0.005056	-0.000407
1.150000	0.004547	0.000529
1.160000	0.005483	-0.000092
1.170000	0.005768	0.000031
1.180000	0.005290	-0.000010
1.190000	0.005005	0.000071
1.200000	0.005666	-0.000081
1.210000	0.005280	-0.000488
1.220000	0.005239	0.000397
1.230000	0.005402	0.000376
1.240000	0.005575	0.000722
1.250000	0.005412	0.000519
1.260000	0.005656	-0.000264
1.270000	0.005880	-0.000092
1.280000	0.006002	0.000112
1.290000	0.005198	0.000346
1.300000	0.005839	-0.000142
1.310000	0.006409	0.000244
1.320000	0.005686	0.000427
1.330000	0.006215	0.000356
1.340000	0.006195	0.000193
1.350000	0.006480	0.000336
1.360000	0.006419	0.000641
1.370000	0.006002	0.000458
1.380000	0.006683	0.000356
1.390000	0.005748	0.000478
1.400000	0.006490	0.000295
1.410000	0.006531	0.000132
1.420000	0.007538	0.000427
1.430000	0.008921	0.000926
1.440000	0.012177	0.001058
1.450000	0.015513	0.002523
1.460000	0.019440	0.003662
1.470000	0.020966	0.004242
1.480000	0.018382	0.004761
1.490000	0.011821	0.003581
1.500000	0.005025	0.002187
1.510000	-0.001841	-0.000783
1.520000	-0.000376	-0.002116
1.530000	0.002309	-0.002594
1.540000	0.007365	-0.001872
1.550000	0.012166	0.000966
1.560000	0.009043	0.003459
1.570000	0.006378	0.004171
1.580000	-0.001709	0.002075
1.590000	-0.012004	-0.000570
1.600000	-0.022156	-0.003611
1.610000	-0.028331	-0.007090
1.620000	-0.032522	-0.010671
1.630000	-0.030701	-0.010691
1.640000	-0.022492	-0.008759
1.650000	-0.016083	-0.005727
1.660000	-0.010356	-0.004425
1.670000	-0.005198	-0.001231
1.680000	0.000498	0.000977
1.690000	0.003377	0.000610
1.700000	0.004740	0.000193
1.710000	0.006989	-0.000448
1.720000	0.008484	-0.001068
1.730000	0.009735	-0.002187
1.740000	0.010824	-0.002563
1.750000	0.011556	-0.002085
1.760000	0.011658	-0.001465
1.770000	0.011963	-0.002411
1.780000	0.012339	-0.001648
1.790000	0.011648	-0.000570
1.800000	0.010651	0.000468
1.810000	0.011149	0.000702
1.820000	0.010101	0.002502
1.830000	0.009135	0.002513
1.840000	0.009115	0.003459
1.850000	0.008871	0.004567
1.860000	0.008850	0.003784
1.870000	0.008575	0.004089
1.880000	0.008779	0.003672
1.890000	0.009654	0.003815
1.900000	0.010325	0.003337
1.910000	0.010844	0.002157
1.920000	0.011220	0.001536
1.930000	0.011373	0.000702
1.940000	0.012024	0.000020
1.950000	0.012004	-0.000214
1.960000	0.012278	-0.000804
1.970000	0.012278	-0.000682
1.980000	0.011831	-0.000346
1.990000	0.010488	-0.000559
2.000000	0.009806	-0.000376
2.010000	0.009023	0.000193
2.020000	0.008799	0.000448
2.030000	0.008759	0.001343
2.040000	0.007233	0.001750
2.050000	0.007314	0.002248
2.060000	0.006165	0.002126
2.070000	0.006663	0.002075
2.080000	0.006805	0.001780
2.090000	0.006093	0.002380
2.100000	0.006602	0.002146
2.110000	0.007019	0.001821
2.120000	0.006978	0.001994
2.130000	0.007731	0.000865
2.140000	0.008382	0.000977
2.150000	0.008362	0.000264
2.160000	0.007894	-0.000661
2.170000	0.008250	-0.000722
2.180000	0.008362	-0.001465
2.190000	0.008026	-0.001119
2.200000	0.008545	-0.000895
2.210000	0.008209	-0.000793
2.220000	0.007223	-0.000295
2.230000	0.006449	0.000193
2.240000	0.006388	0.000285
2.250000	0.005310	0.000549
2.260000	0.004608	0.000865
2.270000	0.004313	0.001495
2.280000	0.004435	0.001211
2.290000	0.004924	0.001261
2.300000	0.004283	0.001841
2.310000	0.004649	0.000905
2.320000	0.005147	0.000610
2.330000	0.005046	0.000651
2.340000	0.005381	0.000102
2.350000	0.005168	-0.000295
2.360000	0.005005	0.000153
2.370000	0.005412	-0.000793
2.380000	0.006378	-0.000417
2.390000	0.006134	-0.000570
2.400000	0.006154	-0.000916
2.410000	0.005941	-0.000753
2.420000	0.005890	-0.000407
2.430000	0.004934	-0.000783
2.440000	0.004842	-0.000570
2.450000	0.004100	0.000305
2.460000	0.003886	0.000783
2.470000	0.003479	0.000671
2.480000	0.003255	0.000397
2.490000	0.002991	0.000295
2.500000	0.002808	0.000641
2.510000	0.002645	0.000641
2.520000	0.003652	0.000041
2.530000	0.002838	0.000254
2.540000	0.003235	-0.000783
2.550000	0.003916	-0.000275
2.560000	0.004588	-0.000112
2.570000	0.004761	-0.000356
2.580000	0.004761	-0.000865
2.590000	0.004618	-0.000722
2.600000	0.004934	-0.000427
2.610000	0.004588	-0.000254
2.620000	0.004639	-0.000885
2.630000	0.004425	-0.000712
2.640000	0.004181	-0.000722
2.650000	0.003784	-0.000478
2.660000	0.003560	-0.000773
2.670000	0.003326	-0.000529
2.680000	0.002950	0.000132
2.690000	0.003560	-0.000203
2.700000	0.003072	0.000264
2.710000	0.002787	-0.000671
2.720000	0.002238	-0.000559
2.730000	0.003479	-0.000926
2.740000	0.002787	-0.000549
2.750000	0.003682	-0.000437
2.760000	0.003571	-0.000631
2.770000	0.004110	-0.000753
2.780000	0.003601	-0.001282
2.790000	0.004547	-0.000966
2.800000	0.004018	-0.000926
2.810000	0.004293	-0.001088
2.820000	0.004018	-0.000153
2.830000	0.004659	-0.000346
2.840000	0.004313	-0.000336
2.850000	0.003977	0.000376
2.860000	0.003927	0.000193
2.870000	0.003560	0.000336
2.880000	0.003947	0.000407
2.890000	0.003479	-0.000010
2.900000	0.003866	0.000061
2.910000	0.004130	-0.000356
2.920000	0.004059	-0.000234
2.930000	0.004110	-0.000936
2.940000	0.004456	-0.000224
2.950000	0.005147	-0.000570
2.960000	0.005025	-0.000224
2.970000	0.004191	-0.000702
2.980000	0.004690	-0.000946
2.990000	0.004578	-0.000793
3.000000	0.004924	-0.000478
3.010000	0.004598	-0.000631
3.020000	0.004873	0.000051
3.030000	0.005432	-0.000071
3.040000	0.005127	-0.000254
3.050000	0.004567	-0.000478
3.060000	0.004059	0.000010
3.070000	0.004313	-0.000478
3.080000	0.003866	0.000163
3.090000	0.004995	-0.000468
3.100000	0.004649	0.000600
3.110000	0.005127	0.000458
3.120000	0.004873	0.000203
3.130000	0.004974	-0.000437
3.140000	0.005066	-0.000203
3.150000	0.005493	-0.000285
3.160000	0.005290	-0.000926
3.170000	0.005086	-0.000549
3.180000	0.005249	-0.000539
3.190000	0.005371	-0.000254
3.200000	0.005839	-0.000488
3.210000	0.005320	-0.000153
3.220000	0.005473	0.000020
3.230000	0.004883	0.000031
3.240000	0.004506	0.000529
3.250000	0.004557	0.000641
3.260000	0.004567	0.000214
3.270000	0.005503	0.000875
3.280000	0.005300	0.000651
3.290000	0.005391	0.000763
3.300000	0.005412	0.000376
3.310000	0.005452	0.000549
3.320000	0.005107	0.000793
3.330000	0.006124	-0.000397
3.340000	0.005137	0.000020
3.350000	0.005534	-0.000326
3.360000	0.005178	-0.000437
3.370000	0.005361	-0.000641
3.380000	0.005758	-0.000031
3.390000	0.005595	-0.000366
3.400000	0.005330	-0.000621
3.410000	0.005168	0.000885
3.420000	0.004537	0.000814
3.430000	0.004801	-0.000254
3.440000	0.005066	0.000448
3.450000	0.005076	0.000315
3.460000	0.005249	0.000458
3.470000	0.004466	0.000010
3.480000	0.004323	0.000559
3.490000	0.004629	0.000285
3.500000	0.004954	0.000722
3.510000	0.005534	-0.000061
3.520000	0.005157	-0.000132
3.530000	0.005402	0.000031
3.540000	0.005870	0.000183
3.550000	0.005646	-0.000356
3.560000	0.005727	0.000305
3.570000	0.005829	-0.000488
3.580000	0.005758	0.000153
3.590000	0.005849	-0.000417
3.600000	0.005961	0.000122
3.610000	0.004415	0.000478
3.620000	0.005503	0.000122
3.630000	0.005483	-0.000183
3.640000	0.004974	-0.000163
3.650000	0.004964	0.000356
3.660000	0.004201	-0.000224
3.670000	0.004659	0.000590
3.680000	0.005463	0.000326
3.690000	0.005310	0.000081
3.700000	0.004710	0.000264
3.710000	0.005554	0.000132
3.720000	0.005442	-0.000529
3.730000	0.005188	-0.000224
3.740000	0.005453	0.000112
3.750000	0.004801	0.000173
3.760000	0.005198	-0.000173
3.770000	0.005493	-0.000610
3.780000	0.004547	0.000488
3.790000	0.005391	-0.000478
3.800000	0.005371	0.000509
3.810000	0.005046	-0.000173
3.820000	0.005269	-0.000020
3.830000	0.004690	0.000559
3.840000	0.004964	0.000346
3.850000	0.005208	-0.000448
3.860000	0.004781	0.000559
3.870000	0.005198	0.000692
3.880000	0.005219	0.000387
3.890000	0.004435	-0.000529
3.900000	0.004873	-0.000092
3.910000	0.005147	-0.000081
3.920000	0.004598	0.000336
3.930000	0.004791	0.000285
3.940000	0.004740	0.000397
3.950000	0.004506	-0.000621
3.960000	0.004812	-0.000275
3.970000	0.004751	-0.000081
3.980000	0.005219	0.000346
3.990000	0.005544	-0.000366
4.000000	0.005453	0.000203
4.010000	0.005453	-0.000051
4.020000	0.005127	0.000102
4.030000	0.005249	0.000295
4.040000	0.005249	-0.000132
4.050000	0.005239	-0.000102
4.060000	0.004751	0.000448
4.070000	0.005208	0.000834
4.080000	0.004954	-0.000112
4.090000	0.005300	-0.000346
4.100000	0.004740	-0.000122
4.110000	0.005330	-0.000610
4.120000	0.005371	0.000061
4.130000	0.006134	0.000458
4.140000	0.005269	-0.000407
4.150000	0.005269	-0.000214
4.160000	0.005402	-0.000224
4.170000	0.005768	-0.000203
4.180000	0.005096	-0.000376
4.190000	0.005453	-0.000163
4.200000	0.005707	0.000397
4.210000	0.005605	0.000254
4.220000	0.005493	-0.000071
4.230000	0.005463	0.000061
4.240000	0.005453	-0.000112
4.250000	0.005188	0.000600
4.260000	0.004924	-0.000163
4.270000	0.005381	-0.000183
4.280000	0.004710	0.000203
4.290000	0.004395	-0.000356
4.300000	0.004761	0.000305
4.310000	0.003957	0.000173
4.320000	0.005229	-0.000193
4.330000	0.005351	-0.000997
4.340000	0.005269	-0.000264
4.350000	0.005534	-0.000203
4.360000	0.005849	0.000010
4.370000	0.005096	-0.000142
4.380000	0.005819	-0.000071
4.390000	0.005056	0.000081
4.400000	0.005483	0.000183
4.410000	0.005005	-0.000285
4.420000	0.004995	-0.000173
4.430000	0.005280	0.000173
4.440000	0.005188	-0.000092
4.450000	0.005066	0.000173
4.460000	0.005198	0.000315
4.470000	0.004191	0.000315
4.480000	0.005269	0.000031
4.490000	0.005290	0.000407
4.500000	0.005646	0.000132
4.510000	0.005147	-0.000163
4.520000	0.005524	-0.000153
4.530000	0.005280	-0.000051
4.540000	0.005554	-0.000102
4.550000	0.005636	-0.000427
4.560000	0.005391	0.000163
4.570000	0.005402	-0.000031
4.580000	0.005320	0.000173
4.590000	0.004964	0.000081
4.600000	0.005025	-0.000254
4.610000	0.005666	0.000621
4.620000	0.004161	-0.000020
4.630000	0.005229	0.000102
4.640000	0.005269	0.000468
4.650000	0.004883	0.000387
4.660000	0.004608	0.000631
4.670000	0.004069	0.000275
4.680000	0.004679	-0.000376
4.690000	0.005585	0.000285
4.700000	0.005554	-0.000153
4.710000	0.005412	-0.000031
4.720000	0.005758	0.000051
4.730000	0.005463	0.000275
4.740000	0.005544	-0.000427
4.750000	0.004903	0.000631
4.760000	0.005514	-0.000295
4.770000	0.005208	-0.000020
4.780000	0.005269	-0.000275
4.790000	0.004903	-0.000122
4.800000	0.005249	0.000315
4.810000	0.005442	-0.000224
4.820000	0.005035	0.000102
4.830000	0.005391	0.000264
4.840000	0.004903	0.000122
4.850000	0.004344	0.000783
4.860000	0.005544	0.000580
4.870000	0.005229	0.000356
4.880000	0.005147	-0.000112
4.890000	0.005188	0.000234
4.900000	0.005391	0.000122
4.910000	0.006012	-0.000580
4.920000	0.004791	-0.000631
4.930000	0.005381	-0.000315
4.940000	0.005178	0.000031
4.950000	0.005147	-0.000549
4.960000	0.004822	-0.000071
4.970000	0.004567	-0.000417
4.980000	0.005076	0.000275
4.990000	0.005391	-0.000051
5.000000	0.004812	-0.000295
5.010000	0.005035	0.000224
5.020000	0.004913	0.000437
5.030000	0.005391	0.000315
5.040000	0.004730	-0.000041
5.050000	0.004730	-0.000041
5.060000	0.004659	0.000387
5.070000	0.004985	0.000142
5.080000	0.005239	0.000285
5.090000	0.004832	-0.000132
5.100000	0.005453	-0.000132
5.110000	0.004873	-0.000437
5.120000	0.005330	-0.000132
5.130000	0.005412	-0.000621
5.140000	0.005442	0.000203
5.150000	0.005320	-0.000244
5.160000	0.004934	-0.000122
5.170000	0.005676	-0.000041
5.180000	0.005157	0.000895
5.190000	0.005412	0.000183
5.200000	0.005544	-0.000468
5.210000	0.005290	0.000326
5.220000	0.004679	-0.000254
5.230000	0.005371	-0.000071
5.240000	0.004649	0.000193
5.250000	0.005056	-0.000081
5.260000	0.004598	0.000458
5.270000	0.005015	0.000692
5.280000	0.005229	0.000000
5.290000	0.005300	0.000031
5.300000	0.004934	-0.000173
5.310000	0.005229	-0.000061
5.320000	0.004720	-0.000061
5.330000	0.005117	-0.000468
5.340000	0.005493	-0.000315
5.350000	0.005463	-0.000254
5.360000	0.005452	-0.000336
5.370000	0.004852	0.000539
5.380000	0.005544	-0.000092
5.390000	0.005585	-0.000387
5.400000	0.004934	0.000071
5.410000	0.005127	-0.000275
5.420000	0.004934	-0.000275
5.430000	0.005259	-0.000559
5.440000	0.005188	0.000224
5.450000	0.005381	0.000580
5.460000	0.004944	0.000224
5.470000	0.005514	-0.000275
5.480000	0.005310	-0.000051
5.490000	0.005198	-0.000417
5.500000	0.005198	-0.000000
5.510000	0.005005	-0.000336
5.520000	0.005320	-0.000214
5.530000	0.004893	-0.000295
5.540000	0.005300	-0.000407
5.550000	0.005239	-0.000397
5.560000	0.004903	-0.000224
5.570000	0.004964	-0.000509
5.580000	0.005117	-0.000600
5.590000	0.005290	-0.000580
5.600000	0.004730	0.000264
5.610000	0.005107	-0.000183
5.620000	0.004832	0.000254
5.630000	0.005351	-0.000203
5.640000	0.005046	0.000081
5.650000	0.004893	0.000244
5.660000	0.005290	0.000875
5.670000	0.005269	-0.000193
5.680000	0.004954	0.000020
5.690000	0.005402	0.000051
5.700000	0.005015	-0.000163
5.710000	0.005605	-0.000061
5.720000	0.005178	-0.000376
5.730000	0.005453	-0.000224
5.740000	0.004557	0.000214
5.750000	0.005503	0.000041
5.760000	0.005473	-0.000153
5.770000	0.005524	-0.000254
5.780000	0.005676	-0.000702
5.790000	0.005381	-0.000051
5.800000	0.005208	0.000041
5.810000	0.005646	0.000254
5.820000	0.004852	-0.000417
5.830000	0.005300	-0.000193
5.840000	0.005463	0.000203
5.850000	0.005005	0.000539
5.860000	0.004761	0.000020
5.870000	0.005015	-0.000051
5.880000	0.004913	0.000244
5.890000	0.004974	0.000122
5.900000	0.004862	-0.000031
5.910000	0.004812	-0.000051
5.920000	0.004924	-0.000254
5.930000	0.004232	-0.000336
5.940000	0.005391	-0.000275
5.950000	0.004791	-0.000153
5.960000	0.004852	0.000153
5.970000	0.004812	-0.000448
5.980000	0.005198	0.000061
5.990000	0.005188	-0.000387
6.000000	0.005117	0.000041
6.010000	0.005076	0.000173
6.020000	0.005147	-0.000102
6.030000	0.005035	0.000142
6.040000	0.004893	0.000305
6.050000	0.004852	0.000081
6.060000	0.005432	-0.000000
6.070000	0.004740	-0.000122
6.080000	0.004801	-0.000692
6.090000	0.004557	0.000010
6.100000	0.004944	0.000081
6.110000	0.004862	-0.000031
6.120000	0.005300	-0.000264
6.130000	0.005147	0.000081
6.140000	0.004893	-0.000285
6.150000	0.005157	-0.000224
6.160000	0.004883	-0.000356
6.170000	0.004771	-0.000376
6.180000	0.004771	0.000214
6.190000	0.004842	-0.000539
6.200000	0.004496	0.000326
6.210000	0.005015	-0.000020
6.220000	0.005310	-0.000305
6.230000	0.005005	-0.000203
6.240000	0.005676	-0.000193
6.250000	0.004995	0.000020
6.260000	0.005035	0.000010
6.270000	0.005259	-0.000264
6.280000	0.005605	-0.000000
6.290000	0.005086	-0.000092
6.300000	0.005686	-0.000153
6.310000	0.005778	0.000071
6.320000	0.004852	0.000092
6.330000	0.004883	0.000315
6.340000	0.005188	-0.000132
6.350000	0.005697	0.000092
6.360000	0.004323	-0.000173
6.370000	0.004791	-0.000234
6.380000	0.004781	-0.000010
6.390000	0.004740	-0.000305
6.400000	0.005493	-0.000346
6.410000	0.005473	0.000000
6.420000	0.004649	-0.000407
6.430000	0.005107	0.000142
6.440000	0.005046	-0.000000
6.450000	0.005473	0.000010
6.460000	0.005310	0.000183
6.470000	0.005524	-0.000346
6.480000	0.005575	0.000102
6.490000	0.005269	0.000356
6.500000	0.005239	0.000417
6.510000	0.005432	-0.000122
6.520000	0.004700	0.000031
6.530000	0.005219	-0.000132
6.540000	0.005585	-0.000264
6.550000	0.005178	0.000153
6.560000	0.005188	0.000183
6.570000	0.005341	-0.000203
6.580000	0.005514	0.000122
6.590000	0.005402	-0.000366
6.600000	0.005157	0.000407
6.610000	0.004934	0.000020
6.620000	0.005412	0.000102
6.630000	0.005758	0.000509
6.640000	0.005056	-0.000051
6.650000	0.005168	-0.000010
6.660000	0.005127	-0.000153
6.670000	0.004924	-0.000031
6.680000	0.004934	-0.000305
6.690000	0.005208	-0.000122
6.700000	0.005198	0.000244
6.710000	0.005035	0.000193
6.720000	0.005229	-0.000183
6.730000	0.005727	-0.000112
6.740000	0.005198	0.000112
6.750000	0.004476	0.000183
6.760000	0.005046	-0.000468
6.770000	0.005361	0.000163
6.780000	0.005168	-0.000254
6.790000	0.004954	-0.000244
6.800000	0.004171	-0.000020
6.810000	0.004873	-0.000142
6.820000	0.004629	0.000346
6.830000	0.005361	0.000071
6.840000	0.005269	-0.000488
6.850000	0.005748	0.000244
6.860000	0.004974	-0.000437
6.870000	0.005819	-0.000102
6.880000	0.004974	0.000041
6.890000	0.005056	-0.000031
6.900000	0.004781	0.000346
6.910000	0.005686	-0.000092
6.920000	0.004974	-0.000010
6.930000	0.005381	-0.000163
6.940000	0.004954	0.000010
6.950000	0.005402	-0.000153
6.960000	0.005208	0.000061
6.970000	0.005361	-0.000092
6.980000	0.004995	0.000387
6.990000	0.004852	0.000264
7.000000	0.004873	0.000234
7.010000	0.005147	-0.000061
7.020000	0.005615	0.000142
7.030000	0.005412	0.000163
7.040000	0.005157	-0.000041
7.050000	0.005280	-0.000336
7.060000	0.005137	0.000142
7.070000	0.004781	-0.000336
7.080000	0.005452	0.000020
7.090000	0.005442	0.000397
7.100000	0.005300	-0.000020
7.110000	0.005188	0.000427
7.120000	0.004700	-0.000153
7.130000	0.005463	-0.000437
7.140000	0.005768	-0.000153
7.150000	0.005280	0.000326
7.160000	0.005554	0.000112
7.170000	0.004710	0.000448
7.180000	0.005117	-0.000214
7.190000	0.005259	0.000244
7.200000	0.005107	-0.000122
7.210000	0.005707	-0.000051
7.220000	0.004862	-0.000529
7.230000	0.004995	0.000041
7.240000	0.005249	-0.000163
7.250000	0.005361	0.000010
7.260000	0.004934	0.000285
7.270000	0.005361	0.000061
7.280000	0.005280	-0.000458
7.290000	0.005453	0.000326
7.300000	0.005086	0.000020
7.310000	0.005493	-0.000193
7.320000	0.004781	0.000020
7.330000	0.005107	-0.000183
7.340000	0.005198	-0.000244
7.350000	0.005605	0.000712
7.360000	0.005473	-0.000336
7.370000	0.005239	-0.000092
7.380000	0.005086	-0.000051
7.390000	0.005056	0.000061
7.400000	0.005208	0.000061
7.410000	0.005503	0.000051
7.420000	0.005290	-0.000010
7.430000	0.005290	-0.000071
7.440000	0.005656	-0.000203
7.450000	0.005096	-0.000366
7.460000	0.004700	0.000020
7.470000	0.004761	0.000031
7.480000	0.005178	-0.000214
7.490000	0.005046	-0.000153
7.500000	0.004893	0.000346
7.510000	0.005636	0.000081
7.520000	0.005412	0.000549
7.530000	0.005046	0.000102
7.540000	0.004679	0.000224
7.550000	0.004954	-0.000031
7.560000	0.005269	0.000010
7.570000	0.004995	-0.000153
7.580000	0.005239	-0.000061
7.590000	0.005280	0.000295
7.600000	0.005086	-0.000173
7.610000	0.005341	-0.000020
7.620000	0.005595	-0.000203
7.630000	0.004639	-0.000051
7.640000	0.005229	-0.000122
7.650000	0.005310	-0.000539
7.660000	0.005656	-0.000061
7.670000	0.004740	-0.000539
7.680000	0.005758	-0.000559
7.690000	0.004344	0.000366
7.700000	0.004659	0.000122
7.710000	0.004649	-0.000305
7.720000	0.004903	-0.000346
7.730000	0.005595	0.000244
7.740000	0.005157	-0.000275
7.750000	0.005259	-0.000132
7.760000	0.005117	-0.000275
7.770000	0.005646	-0.000031
7.780000	0.005157	-0.000153
7.790000	0.005269	-0.000061
7.800000	0.004191	-0.000142
7.810000	0.005168	0.000041
7.820000	0.005341	0.000193
7.830000	0.005514	-0.000193
7.840000	0.005829	0.000031
7.850000	0.004924	0.000305
7.860000	0.005351	0.000142
7.870000	0.005229	0.000132
7.880000	0.005259	0.000142
7.890000	0.005280	-0.000295
7.900000	0.005320	0.000590
7.910000	0.005920	0.000356
7.920000	0.005585	-0.000224
7.930000	0.005798	-0.000061
7.940000	0.005239	-0.000102
7.950000	0.005351	0.000275
7.960000	0.004913	-0.000051
7.970000	0.004771	0.000254
7.980000	0.005117	-0.000183
7.990000	0.005473	-0.000203
8.000000	0.005320	-0.000132
8.010000	0.005442	0.000193
8.020000	0.005483	-0.000020
8.030000	0.005269	0.000498
8.040000	0.005778	0.000092
8.050000	0.005158	-0.000193
8.060000	0.005280	0.000214
8.070000	0.005137	0.000153
8.080000	0.005056	-0.000376
8.090000	0.005157	-0.000173
8.100000	0.004903	-0.000010
8.110000	0.005290	-0.000580
8.120000	0.005432	0.000081
8.130000	0.005534	0.000488
8.140000	0.005849	0.000387
8.150000	0.005575	0.000041
8.160000	0.005646	0.000112
8.170000	0.005320	0.000102
8.180000	0.005361	0.000081
8.190000	0.005849	-0.000112
8.200000	0.005453	-0.000397
8.210000	0.005422	0.000356
8.220000	0.005809	-0.000315
8.230000	0.006124	0.000671
8.240000	0.004822	-0.000234
8.250000	0.005442	-0.000387
8.260000	0.005269	-0.000031
8.270000	0.004954	0.000142
8.280000	0.005219	-0.000346
8.290000	0.005442	-0.000203
8.300000	0.005137	0.000234
8.310000	0.005595	-0.000285
8.320000	0.005575	0.000183
8.330000	0.005259	-0.000173
8.340000	0.005320	-0.000122
8.350000	0.004618	-0.000224
8.360000	0.005636	-0.000509
8.370000	0.004944	-0.000112
8.380000	0.005147	-0.000264
8.390000	0.005198	0.000498
8.400000	0.004801	-0.000326
8.410000	0.004557	-0.000600
8.420000	0.004425	-0.000387
8.430000	0.005554	0.000122
8.440000	0.005534	-0.000244
8.450000	0.005473	-0.000366
8.460000	0.005290	-0.000427
8.470000	0.005656	-0.000193
8.480000	0.005076	0.000163
8.490000	0.005137	0.000305
8.500000	0.005147	0.000071
8.510000	0.005402	0.000092
8.520000	0.005859	0.000020
8.530000	0.004801	-0.000407
8.540000	0.004995	-0.000529
8.550000	0.005676	-0.000254
8.560000	0.005005	0.000153
8.570000	0.005208	0.000295
8.580000	0.005127	0.000132
8.590000	0.005514	-0.000020
8.600000	0.005035	0.000051
8.610000	0.005676	0.000376
8.620000	0.005625	0.000621
8.630000	0.005198	-0.000071
8.640000	0.005819	-0.000336
8.650000	0.005534	-0.000081
8.660000	0.005697	-0.000549
8.670000	0.005239	-0.000244
8.680000	0.004893	0.000478
8.690000	0.005615	0.000549
8.700000	0.005605	0.000183
8.710000	0.005290	0.000468
8.720000	0.005127	0.000336
8.730000	0.005503	0.000356
8.740000	0.005219	0.000020
8.750000	0.005239	0.000529
8.760000	0.005676	0.000193
8.770000	0.005137	-0.000987
8.780000	0.005066	-0.000336
8.790000	0.004812	-0.000071
8.800000	0.005066	-0.000092
8.810000	0.004995	0.000142
8.820000	0.005259	-0.000498
8.830000	0.005025	-0.000102
8.840000	0.004954	0.000020
8.850000	0.004974	0.000020
8.860000	0.005483	0.000559
8.870000	0.005259	-0.000193
8.880000	0.005931	-0.000031
8.890000	0.005239	0.000244
8.900000	0.005585	0.000031
8.910000	0.005086	-0.000264
8.920000	0.004822	-0.000214
8.930000	0.005157	-0.000336
8.940000	0.005748	-0.000264
8.950000	0.005066	0.000498
8.960000	0.004751	-0.000193
8.970000	0.005127	-0.000254
8.980000	0.005025	0.000173
8.990000	0.005310	-0.000529
9.000000	0.005147	-0.000437
9.010000	0.005086	-0.000183
9.020000	0.005137	0.000010
9.030000	0.005035	-0.000193
9.040000	0.005554	0.000468
9.050000	0.005412	0.000214
9.060000	0.005371	-0.000356
9.070000	0.005554	-0.000621
9.080000	0.005341	-0.000051
9.090000	0.005910	-0.000295
9.100000	0.005686	-0.000081
9.110000	0.005890	0.000163
9.120000	0.005503	-0.000173
9.130000	0.005534	0.000356
9.140000	0.005717	0.000183
9.150000	0.005798	-0.000295
9.160000	0.005686	0.000153
9.170000	0.005503	0.000081
9.180000	0.005198	-0.000051
9.190000	0.005493	-0.000264
9.200000	0.005615	-0.000031
9.210000	0.005351	0.000234
9.220000	0.005168	0.000244
9.230000	0.005514	0.000254
9.240000	0.005310	-0.000214
9.250000	0.005249	-0.000275
9.260000	0.005086	-0.000081
9.270000	0.005748	-0.000244
9.280000	0.004903	-0.000010
9.290000	0.005473	-0.000102
9.300000	0.005524	0.000031
9.310000	0.006002	0.000346
9.320000	0.005768	-0.000061
9.330000	0.005229	-0.000214
9.340000	0.005412	-0.000051
9.350000	0.005269	-0.000183
9.360000	0.005564	-0.000020
9.370000	0.005300	0.000214
9.380000	0.005402	-0.000092
9.390000	0.005493	0.000102
9.400000	0.005168	-0.000193
9.410000	0.004944	0.000275
9.420000	0.005483	0.000488
9.430000	0.005656	0.000264
9.440000	0.005748	0.000264
9.450000	0.005269	0.000020
9.460000	0.005086	0.000488
9.470000	0.005188	0.000417
9.480000	0.005554	0.000071
9.490000	0.005595	-0.000173
9.500000	0.005524	0.000132
9.510000	0.005361	0.000051
9.520000	0.005361	-0.000142
9.530000	0.005076	-0.000254
9.540000	0.005402	-0.000132
9.550000	0.005137	0.000275
9.560000	0.005280	0.000102
9.570000	0.005473	-0.000112
9.580000	0.005035	0.000163
9.590000	0.005280	0.000458
9.600000	0.005015	0.000285
9.610000	0.005219	0.000559
9.620000	0.004598	-0.000326
9.630000	0.005290	-0.000244
9.640000	0.005514	-0.000092
9.650000	0.004873	0.000234
9.660000	0.003744	0.000173
9.670000	0.005168	0.000448
9.680000	0.005849	-0.000224
9.690000	0.005371	0.000163
9.700000	0.005300	-0.000051
9.710000	0.005493	-0.000387
9.720000	0.005402	-0.000498
9.730000	0.005290	0.000051
9.740000	0.005076	0.000366
9.750000	0.005219	0.000214
9.760000	0.004862	0.000275
9.770000	0.005147	0.000264
9.780000	0.005066	-0.000112
9.790000	0.005137	-0.000092
9.800000	0.005452	-0.000010
9.810000	0.005768	-0.000051
9.820000	0.004791	-0.000590
9.830000	0.005178	0.000641
9.840000	0.005412	-0.000661
9.850000	0.004893	-0.000427
9.860000	0.004852	0.000193
9.870000	0.005778	0.000234
9.880000	0.005290	-0.000437
9.890000	0.005768	-0.000020
9.900000	0.005625	-0.000336
9.910000	0.005300	0.000142
9.920000	0.005127	0.000264
9.930000	0.005117	-0.000183
9.940000	0.005198	-0.000193
9.950000	0.005961	0.000244
9.960000	0.005453	-0.000193
9.970000	0.005249	-0.000356
9.980000	0.005839	0.000173
9.990000	0.004934	0.000041
10.000000	0.004690	-0.000356
