UBB Dec12 1947 Average.d24 - THz Start: 187.69 mm, 1000 points, 10 fs - Pump Probe Time: 1.15 ps, Pump Motor Position: 95.2800 mm, 46 points, -50 fs - Wait: 400 ms -  Averages: 1 - Lock-In 1: 500 mV/mA, 100 ms - Lock-In 2: 500 mV/mA, 100 ms
0.010000	0.005178	-0.000315
0.020000	0.004690	-0.000173
0.030000	0.004801	-0.000264
0.040000	0.004822	0.000102
0.050000	0.004435	-0.000193
0.060000	0.003387	0.000163
0.070000	0.004283	-0.000142
0.080000	0.004720	0.000336
0.090000	0.004191	0.001007
0.100000	0.004476	-0.000214
0.110000	0.004679	-0.000122
0.120000	0.004812	-0.000092
0.130000	0.004232	-0.000010
0.140000	0.004700	0.000112
0.150000	0.004771	0.000407
0.160000	0.004252	-0.000264
0.170000	0.005310	0.000031
0.180000	0.004669	-0.000112
0.190000	0.004364	-0.000315
0.200000	0.005371	0.000092
0.210000	0.003977	0.000081
0.220000	0.004303	0.000203
0.230000	0.003754	-0.000285
0.240000	0.003560	0.000529
0.250000	0.004740	0.000498
0.260000	0.003876	-0.000214
0.270000	0.004334	-0.000529
0.280000	0.005575	0.000661
0.290000	0.004486	-0.000061
0.300000	0.004476	0.000163
0.310000	0.004873	-0.000193
0.320000	0.005269	0.000641
0.330000	0.004283	-0.000163
0.340000	0.003805	-0.000376
0.350000	0.005137	-0.000356
0.360000	0.003408	-0.000559
0.370000	0.005046	0.000783
0.380000	0.004639	-0.000122
0.390000	0.004242	-0.000071
0.400000	0.004903	-0.000834
0.410000	0.004211	0.000193
0.420000	0.004059	-0.000946
0.430000	0.004435	-0.000153
0.440000	0.004191	0.000244
0.450000	0.005208	0.000570
0.460000	0.004049	-0.000102
0.470000	0.004456	0.000153
0.480000	0.005554	-0.000092
0.490000	0.003744	0.000081
0.500000	0.004710	-0.000702
0.510000	0.003571	-0.000295
0.520000	0.004852	-0.000264
0.530000	0.004262	-0.000102
0.540000	0.004211	-0.000071
0.550000	0.005280	-0.000031
0.560000	0.005117	-0.000488
0.570000	0.004374	0.000092
0.580000	0.005330	0.000519
0.590000	0.003682	-0.000020
0.600000	0.004283	0.000366
0.610000	0.003967	-0.000458
0.620000	0.005259	-0.000804
0.630000	0.004354	-0.000743
0.640000	0.004344	-0.000529
0.650000	0.003998	0.000020
0.660000	0.004740	0.000020
0.670000	0.004211	-0.000051
0.680000	0.004934	0.000163
0.690000	0.004893	0.000326
0.700000	0.003621	0.000153
0.710000	0.005056	0.000092
0.720000	0.004293	0.000295
0.730000	0.004130	0.000966
0.740000	0.004964	-0.000142
0.750000	0.004985	0.000244
0.760000	0.003662	-0.000315
0.770000	0.003937	-0.000142
0.780000	0.003866	0.000621
0.790000	0.004608	-0.000153
0.800000	0.003927	-0.000122
0.810000	0.003438	0.000010
0.820000	0.004456	-0.001241
0.830000	0.003784	0.000234
0.840000	0.003927	-0.000295
0.850000	0.003805	-0.000163
0.860000	0.004486	-0.000621
0.870000	0.004293	-0.000234
0.880000	0.004018	-0.000387
0.890000	0.005127	0.000234
0.900000	0.005391	0.000081
0.910000	0.004781	-0.000102
0.920000	0.004639	-0.000041
0.930000	0.004405	0.000041
0.940000	0.004995	-0.000498
0.950000	0.004679	0.000092
0.960000	0.004985	-0.000153
0.970000	0.003744	-0.000458
0.980000	0.004435	0.000092
0.990000	0.003977	0.000336
1.000000	0.003845	0.000305
1.010000	0.004496	-0.000539
1.020000	0.004374	0.000387
1.030000	0.004049	0.000326
1.040000	0.004659	0.000275
1.050000	0.004405	0.000071
1.060000	0.003876	0.000224
1.070000	0.005320	-0.000071
1.080000	0.004486	0.000031
1.090000	0.004395	-0.000214
1.100000	0.004567	-0.000031
1.110000	0.004761	-0.000092
1.120000	0.004191	0.000081
1.130000	0.004669	0.000122
1.140000	0.004272	0.000163
1.150000	0.004934	-0.000529
1.160000	0.003215	0.000153
1.170000	0.004679	0.000804
1.180000	0.004985	0.000356
1.190000	0.005127	-0.000621
1.200000	0.004720	-0.000295
1.210000	0.004486	0.000081
1.220000	0.004720	-0.000183
1.230000	0.005005	0.000000
1.240000	0.004934	0.000193
1.250000	0.004079	0.000295
1.260000	0.004679	-0.000010
1.270000	0.005157	-0.000020
1.280000	0.005341	0.000773
1.290000	0.005178	0.000275
1.300000	0.005056	0.000193
1.310000	0.005717	0.000010
1.320000	0.005371	-0.000254
1.330000	0.005890	-0.000051
1.340000	0.006012	0.000692
1.350000	0.005595	0.000336
1.360000	0.006236	-0.000193
1.370000	0.005971	0.001404
1.380000	0.005595	0.001160
1.390000	0.005819	0.000610
1.400000	0.005961	0.000671
1.410000	0.005697	-0.000387
1.420000	0.005900	-0.000264
1.430000	0.006165	0.000773
1.440000	0.008759	0.000712
1.450000	0.010905	0.001139
1.460000	0.013479	0.001455
1.470000	0.019104	0.002330
1.480000	0.025991	0.005208
1.490000	0.032196	0.006856
1.500000	0.033010	0.007548
1.510000	0.027222	0.007721
1.520000	0.018026	0.005941
1.530000	0.002686	0.000743
1.540000	-0.009064	-0.001068
1.550000	-0.016012	-0.002126
1.560000	-0.022003	-0.007436
1.570000	-0.027140	-0.007538
1.580000	-0.030752	-0.011882
1.590000	-0.034841	-0.009633
1.600000	-0.028493	-0.006012
1.610000	-0.027669	-0.005656
1.620000	-0.024017	-0.007192
1.630000	-0.017894	-0.004079
1.640000	-0.012095	-0.001587
1.650000	-0.006022	0.001007
1.660000	-0.002014	0.002513
1.670000	0.001048	0.001617
1.680000	0.003652	0.001170
1.690000	0.005493	-0.000234
1.700000	0.007172	-0.000600
1.710000	0.008433	-0.001556
1.720000	0.010091	-0.003703
1.730000	0.011648	-0.003255
1.740000	0.011709	-0.002319
1.750000	0.011312	-0.001607
1.760000	0.011444	-0.002686
1.770000	0.011892	-0.001221
1.780000	0.010905	-0.000570
1.790000	0.010488	0.000549
1.800000	0.009338	0.002197
1.810000	0.009003	0.002716
1.820000	0.008047	0.003825
1.830000	0.007324	0.005015
1.840000	0.007558	0.005432
1.850000	0.007558	0.006246
1.860000	0.007924	0.004924
1.870000	0.008352	0.004781
1.880000	0.009135	0.003052
1.890000	0.009847	0.001882
1.900000	0.010407	0.001160
1.910000	0.011281	0.000275
1.920000	0.012207	-0.000590
1.930000	0.012706	-0.001190
1.940000	0.012299	-0.002441
1.950000	0.011668	-0.001729
1.960000	0.011973	-0.002462
1.970000	0.010905	-0.001424
1.980000	0.010315	-0.001261
1.990000	0.009654	-0.000387
2.000000	0.008555	0.000346
2.010000	0.006948	0.000895
2.020000	0.006012	0.002787
2.030000	0.005676	0.002869
2.040000	0.004567	0.004191
2.050000	0.003693	0.003693
2.060000	0.004313	0.004181
2.070000	0.004008	0.002981
2.080000	0.005188	0.002726
2.090000	0.004974	0.002157
2.100000	0.006358	0.000834
2.110000	0.006561	0.000407
2.120000	0.008148	-0.000305
2.130000	0.008881	-0.000580
2.140000	0.009277	-0.001292
2.150000	0.009440	-0.001363
2.160000	0.009959	-0.001506
2.170000	0.008871	-0.002045
2.180000	0.008169	-0.002462
2.190000	0.007609	-0.001740
2.200000	0.006653	-0.000275
2.210000	0.005951	-0.000559
2.220000	0.004730	0.000071
2.230000	0.003927	0.000509
2.240000	0.003133	0.001506
2.250000	0.002879	0.001658
2.260000	0.002645	0.002024
2.270000	0.002106	0.001139
2.280000	0.002523	0.001221
2.290000	0.003245	0.001119
2.300000	0.003835	0.000610
2.310000	0.004039	0.000743
2.320000	0.004150	-0.000254
2.330000	0.005503	-0.000407
2.340000	0.006236	-0.001099
2.350000	0.006063	-0.000783
2.360000	0.006226	-0.001038
2.370000	0.006104	-0.000966
2.380000	0.006673	-0.000427
2.390000	0.006093	-0.000041
2.400000	0.005432	-0.000122
2.410000	0.004924	-0.000590
2.420000	0.004028	-0.000153
2.430000	0.003682	0.000559
2.440000	0.003194	-0.000183
2.450000	0.002411	0.000804
2.460000	0.002492	0.000916
2.470000	0.002157	0.001190
2.480000	0.002248	0.000936
2.490000	0.002096	0.000773
2.500000	0.002675	0.000763
2.510000	0.004089	0.000539
2.520000	0.003184	-0.001027
2.530000	0.003916	-0.000336
2.540000	0.004018	-0.000946
2.550000	0.004527	-0.000305
2.560000	0.005463	-0.001729
2.570000	0.004384	-0.000722
2.580000	0.005137	-0.000865
2.590000	0.005046	-0.000722
2.600000	0.004222	-0.000661
2.610000	0.004323	-0.000071
2.620000	0.003265	-0.000356
2.630000	0.002726	0.000081
2.640000	0.003540	0.000692
2.650000	0.002828	0.000031
2.660000	0.003042	0.001760
2.670000	0.001506	0.000417
2.680000	0.001221	0.000539
2.690000	0.002299	0.000966
2.700000	0.001801	0.000397
2.710000	0.001506	0.000051
2.720000	0.002930	-0.000387
2.730000	0.002981	-0.000661
2.740000	0.003184	-0.000397
2.750000	0.003479	-0.001434
2.760000	0.003784	-0.001251
2.770000	0.003642	-0.001038
2.780000	0.004527	-0.000804
2.790000	0.004629	-0.000631
2.800000	0.004283	-0.000702
2.810000	0.004466	-0.000671
2.820000	0.004150	0.000254
2.830000	0.003428	0.000142
2.840000	0.003540	0.000275
2.850000	0.003042	0.000336
2.860000	0.002492	0.001394
2.870000	0.002757	0.000376
2.880000	0.002655	0.000305
2.890000	0.003204	-0.000610
2.900000	0.003642	-0.000376
2.910000	0.003672	-0.000081
2.920000	0.003642	-0.000356
2.930000	0.004578	-0.000326
2.940000	0.004232	-0.000641
2.950000	0.004293	-0.000610
2.960000	0.004761	-0.000519
2.970000	0.004374	-0.000875
2.980000	0.004161	-0.000478
2.990000	0.004079	-0.000509
3.000000	0.004588	-0.000112
3.010000	0.004028	-0.000010
3.020000	0.004506	0.000336
3.030000	0.003530	-0.000336
3.040000	0.004293	0.000437
3.050000	0.003805	0.001160
3.060000	0.002950	0.001556
3.070000	0.002716	0.001272
3.080000	0.003530	-0.000773
3.090000	0.003398	0.000773
3.100000	0.003693	-0.000041
3.110000	0.004140	-0.000631
3.120000	0.004567	-0.000254
3.130000	0.004384	-0.000549
3.140000	0.005300	-0.000641
3.150000	0.005473	-0.001058
3.160000	0.005330	-0.001068
3.170000	0.004985	-0.000163
3.180000	0.005452	-0.000722
3.190000	0.004974	0.000132
3.200000	0.004110	-0.000610
3.210000	0.004283	0.000061
3.220000	0.004354	0.000458
3.230000	0.004710	0.001088
3.240000	0.003866	0.000539
3.250000	0.004252	0.000142
3.260000	0.003957	-0.000173
3.270000	0.004354	-0.000061
3.280000	0.004425	-0.000061
3.290000	0.004364	0.000234
3.300000	0.004334	0.000539
3.310000	0.005107	0.000488
3.320000	0.005035	-0.000122
3.330000	0.005076	0.000173
3.340000	0.005300	-0.000478
3.350000	0.005005	-0.000203
3.360000	0.003977	-0.000478
3.370000	0.003876	-0.000305
3.380000	0.005015	-0.000081
3.390000	0.005005	0.000000
3.400000	0.005239	-0.000539
3.410000	0.005280	0.000366
3.420000	0.004395	0.000478
3.430000	0.004140	-0.000346
3.440000	0.003886	0.000275
3.450000	0.004049	0.001068
3.460000	0.003540	0.000183
3.470000	0.004364	0.000814
3.480000	0.003530	0.000326
3.490000	0.004171	0.000875
3.500000	0.004496	-0.000264
3.510000	0.005015	0.000102
3.520000	0.004761	0.000539
3.530000	0.004801	-0.000926
3.540000	0.005595	-0.000977
3.550000	0.005442	-0.000783
3.560000	0.005778	0.000041
3.570000	0.005361	0.000092
3.580000	0.006388	-0.000702
3.590000	0.004486	0.000387
3.600000	0.003815	-0.000356
3.610000	0.003845	0.000519
3.620000	0.004110	0.000193
3.630000	0.004476	0.000865
3.640000	0.003713	0.000458
3.650000	0.003611	0.001088
3.660000	0.003682	0.000682
3.670000	0.003774	0.001231
3.680000	0.003398	0.001088
3.690000	0.003855	0.000956
3.700000	0.004486	0.000478
3.710000	0.005168	-0.000407
3.720000	0.005300	-0.000285
3.730000	0.004791	-0.000570
3.740000	0.004771	-0.000559
3.750000	0.005046	-0.000244
3.760000	0.005534	-0.000712
3.770000	0.004934	-0.000315
3.780000	0.005442	-0.001160
3.790000	0.004812	0.000020
3.800000	0.004903	-0.000112
3.810000	0.004557	0.000092
3.820000	0.003693	-0.000061
3.830000	0.004862	-0.000112
3.840000	0.003988	0.000366
3.850000	0.003530	0.001536
3.860000	0.004191	0.000671
3.870000	0.003866	0.000417
3.880000	0.003601	0.000692
3.890000	0.003520	-0.000224
3.900000	0.004069	0.000295
3.910000	0.004903	0.000387
3.920000	0.003693	-0.000142
3.930000	0.004740	0.000193
3.940000	0.005503	0.000336
3.950000	0.004690	-0.000397
3.960000	0.005280	-0.000529
3.970000	0.005015	-0.000437
3.980000	0.004669	-0.000315
3.990000	0.004527	0.000865
4.000000	0.004079	0.000071
4.010000	0.003550	-0.000041
4.020000	0.003754	-0.000702
4.030000	0.003011	-0.000651
4.040000	0.003377	0.000966
4.050000	0.004150	0.000631
4.060000	0.003988	0.000570
4.070000	0.003459	0.000458
4.080000	0.004181	0.000600
4.090000	0.003560	0.000142
4.100000	0.004181	-0.000814
4.110000	0.004222	0.000081
4.120000	0.004842	-0.000722
4.130000	0.004567	0.000437
4.140000	0.004384	-0.000387
4.150000	0.004893	0.000234
4.160000	0.004852	-0.000488
4.170000	0.004730	-0.000549
4.180000	0.004934	-0.000142
4.190000	0.004252	-0.000010
4.200000	0.004588	-0.000336
4.210000	0.004110	0.000041
4.220000	0.003855	-0.000193
4.230000	0.004049	0.000315
4.240000	0.004100	0.000387
4.250000	0.004110	0.000153
4.260000	0.004639	-0.000061
4.270000	0.004161	0.000163
4.280000	0.004395	0.000254
4.290000	0.003896	0.000977
4.300000	0.003632	0.000000
4.310000	0.004730	-0.000407
4.320000	0.005371	-0.000173
4.330000	0.005208	-0.000804
4.340000	0.004629	0.000020
4.350000	0.004740	-0.000285
4.360000	0.004334	0.000051
4.370000	0.004832	-0.000977
4.380000	0.004191	0.000387
4.390000	0.004629	0.000214
4.400000	0.004618	0.000051
4.410000	0.005096	0.000773
4.420000	0.004659	-0.000214
4.430000	0.004242	-0.000346
4.440000	0.004496	0.000417
4.450000	0.004384	-0.000163
4.460000	0.004344	0.000804
4.470000	0.003367	0.000437
4.480000	0.004049	-0.000173
4.490000	0.005086	0.000356
4.500000	0.004486	-0.000112
4.510000	0.004140	0.000305
4.520000	0.004791	-0.000346
4.530000	0.004476	-0.000376
4.540000	0.004629	-0.000153
4.550000	0.004852	-0.000519
4.560000	0.004537	-0.000458
4.570000	0.004395	0.000305
4.580000	0.004415	-0.000254
4.590000	0.003906	-0.000081
4.600000	0.004435	0.000519
4.610000	0.004761	0.000153
4.620000	0.004466	0.000020
4.630000	0.004232	0.000621
4.640000	0.004598	0.001068
4.650000	0.004669	0.000387
4.660000	0.005219	0.000498
4.670000	0.004801	0.000264
4.680000	0.003754	0.000458
4.690000	0.004456	-0.000326
4.700000	0.005076	-0.000132
4.710000	0.005341	0.000254
4.720000	0.004496	-0.000661
4.730000	0.004547	-0.000936
4.740000	0.004344	-0.000651
4.750000	0.004445	0.001302
4.760000	0.004303	0.000641
4.770000	0.003916	-0.000132
4.780000	0.003947	-0.000692
4.790000	0.005056	-0.000987
4.800000	0.003021	0.001668
4.810000	0.004028	-0.000214
4.820000	0.004130	0.000153
4.830000	0.003672	0.001038
4.840000	0.004405	0.000295
4.850000	0.004517	-0.000041
4.860000	0.004059	0.000092
4.870000	0.003825	-0.000295
4.880000	0.003754	-0.000682
4.890000	0.004496	-0.000112
4.900000	0.004181	-0.000254
4.910000	0.003927	-0.000224
4.920000	0.004395	-0.000295
4.930000	0.005493	-0.000692
4.940000	0.004588	-0.000458
4.950000	0.003784	-0.000193
4.960000	0.004354	-0.000610
4.970000	0.004395	-0.000549
4.980000	0.003815	-0.000295
4.990000	0.005015	0.000214
5.000000	0.004679	0.000468
5.010000	0.003174	0.000407
5.020000	0.003296	-0.000783
5.030000	0.003825	0.000549
5.040000	0.003794	0.000071
5.050000	0.003825	-0.000621
5.060000	0.004242	0.000122
5.070000	0.004374	-0.000163
5.080000	0.003733	0.000519
5.090000	0.004740	-0.000336
5.100000	0.004985	-0.000936
5.110000	0.004751	0.000763
5.120000	0.005107	-0.000366
5.130000	0.004618	-0.000234
5.140000	0.004791	-0.000458
5.150000	0.004496	0.000163
5.160000	0.004100	0.000224
5.170000	0.004791	-0.000051
5.180000	0.003957	-0.000946
5.190000	0.004608	-0.000112
5.200000	0.003957	-0.000051
5.210000	0.003876	0.000031
5.220000	0.004069	-0.000275
5.230000	0.004557	0.000142
5.240000	0.004262	-0.000183
5.250000	0.003835	-0.000122
5.260000	0.004110	0.000315
5.270000	0.004934	-0.000183
5.280000	0.003916	-0.000224
5.290000	0.004272	-0.000163
5.300000	0.004547	0.000183
5.310000	0.005208	0.000498
5.320000	0.004679	-0.000203
5.330000	0.003835	-0.000417
5.340000	0.004700	0.000203
5.350000	0.004486	0.000366
5.360000	0.004059	-0.000326
5.370000	0.003866	-0.000488
5.380000	0.004506	-0.000682
5.390000	0.003977	0.000203
5.400000	0.004272	-0.001017
5.410000	0.004781	-0.000163
5.420000	0.004506	0.000458
5.430000	0.004384	-0.000031
5.440000	0.004252	0.000275
5.450000	0.004893	0.000336
5.460000	0.003947	0.000254
5.470000	0.003774	0.000061
5.480000	0.004537	0.000173
5.490000	0.004069	0.000102
5.500000	0.004425	-0.000356
5.510000	0.005056	0.000590
5.520000	0.004649	-0.000142
5.530000	0.004456	0.000326
5.540000	0.004506	0.000437
5.550000	0.004801	-0.000122
5.560000	0.004354	-0.000112
5.570000	0.004537	-0.000153
5.580000	0.004272	0.000081
5.590000	0.005117	-0.000142
5.600000	0.004222	-0.000051
5.610000	0.004476	-0.000427
5.620000	0.004557	0.000417
5.630000	0.004405	-0.000081
5.640000	0.004527	-0.000031
5.650000	0.004272	0.000631
5.660000	0.003632	0.000031
5.670000	0.003927	0.000468
5.680000	0.003733	-0.000020
5.690000	0.005147	-0.000376
5.700000	0.004140	-0.000448
5.710000	0.004486	-0.000448
5.720000	0.004272	-0.000163
5.730000	0.004425	-0.000214
5.740000	0.004100	-0.000458
5.750000	0.004354	0.000275
5.760000	0.003754	0.000417
5.770000	0.004740	-0.000031
5.780000	0.004374	-0.000376
5.790000	0.005096	-0.000020
5.800000	0.004690	0.000692
5.810000	0.004354	0.000020
5.820000	0.003886	0.000580
5.830000	0.004812	-0.000031
5.840000	0.004527	0.000193
5.850000	0.003855	-0.000326
5.860000	0.003957	0.000397
5.870000	0.004639	0.000000
5.880000	0.004466	-0.001200
5.890000	0.004018	0.000071
5.900000	0.004039	0.000397
5.910000	0.003988	0.000336
5.920000	0.004211	-0.000193
5.930000	0.003510	0.000702
5.940000	0.003957	-0.000244
5.950000	0.004740	0.000407
5.960000	0.004812	-0.000336
5.970000	0.004293	0.000102
5.980000	0.004700	-0.000366
5.990000	0.005198	-0.000590
6.000000	0.005015	-0.000305
6.010000	0.004303	0.000580
6.020000	0.004842	0.000071
6.030000	0.004120	0.000468
6.040000	0.004232	0.000122
6.050000	0.003764	0.000132
6.060000	0.004120	0.000122
6.070000	0.004801	0.000702
6.080000	0.005280	-0.000275
6.090000	0.004812	-0.000102
6.100000	0.003438	0.000549
6.110000	0.004334	-0.000285
6.120000	0.004496	0.000559
6.130000	0.004344	-0.000336
6.140000	0.003794	0.000366
6.150000	0.004130	0.000203
6.160000	0.003428	0.000092
6.170000	0.004374	0.000234
6.180000	0.004740	-0.000010
6.190000	0.004547	0.000458
6.200000	0.004598	0.000244
6.210000	0.004751	0.000112
6.220000	0.003744	-0.000122
6.230000	0.004842	0.000041
6.240000	0.003672	0.000183
6.250000	0.003988	-0.000356
6.260000	0.004262	-0.000102
6.270000	0.004598	0.000102
6.280000	0.004537	0.000244
6.290000	0.004242	0.000224
6.300000	0.004079	0.000254
6.310000	0.004262	-0.000264
6.320000	0.003937	-0.000081
6.330000	0.003927	0.000448
6.340000	0.004862	0.000285
6.350000	0.004679	-0.000387
6.360000	0.004211	0.000458
6.370000	0.004954	-0.000244
6.380000	0.005107	-0.000448
6.390000	0.004222	-0.000224
6.400000	0.005015	0.000112
6.410000	0.004578	0.000315
6.420000	0.003367	-0.000081
6.430000	0.004618	0.000264
6.440000	0.004578	0.000712
6.450000	0.005056	0.000183
6.460000	0.004283	-0.000468
6.470000	0.005493	-0.000285
6.480000	0.004791	-0.000081
6.490000	0.004445	0.000875
6.500000	0.004629	-0.000132
6.510000	0.004344	0.000203
6.520000	0.004995	0.000173
6.530000	0.005127	-0.000041
6.540000	0.004944	0.000224
6.550000	0.004578	0.000458
6.560000	0.004496	-0.000854
6.570000	0.004740	-0.000142
6.580000	0.005168	0.000092
6.590000	0.004140	0.000376
6.600000	0.004832	0.000509
6.610000	0.004018	0.000285
6.620000	0.004710	0.000326
6.630000	0.004649	0.000305
6.640000	0.004710	0.000570
6.650000	0.004466	0.000224
6.660000	0.003082	-0.000743
6.670000	0.003977	0.000193
6.680000	0.004049	-0.000804
6.690000	0.004089	-0.000773
6.700000	0.004354	0.000000
6.710000	0.004649	-0.000214
6.720000	0.004527	0.000051
6.730000	0.004822	-0.000020
6.740000	0.004588	0.000122
6.750000	0.004801	-0.000498
6.760000	0.004679	0.000580
6.770000	0.004842	-0.000122
6.780000	0.004761	0.000132
6.790000	0.004405	-0.001058
6.800000	0.004740	0.000183
6.810000	0.003642	0.000214
6.820000	0.004598	-0.000773
6.830000	0.004089	0.000305
6.840000	0.004934	-0.000010
6.850000	0.004517	0.000387
6.860000	0.004303	0.000916
6.870000	0.005361	0.000437
6.880000	0.005310	0.000061
6.890000	0.004395	0.000224
6.900000	0.004191	0.000071
6.910000	0.004598	-0.000173
6.920000	0.004720	-0.000041
6.930000	0.005178	-0.000376
6.940000	0.004903	-0.000183
6.950000	0.005035	0.000163
6.960000	0.005229	-0.000041
6.970000	0.004629	-0.000102
6.980000	0.004150	-0.000366
6.990000	0.003489	-0.000081
7.000000	0.004883	-0.000031
7.010000	0.004720	-0.000092
7.020000	0.004089	0.000275
7.030000	0.003204	0.000437
7.040000	0.004079	-0.000315
7.050000	0.004496	-0.001272
7.060000	0.004578	-0.000732
7.070000	0.005066	-0.000061
7.080000	0.004567	0.000193
7.090000	0.004730	0.000631
7.100000	0.004415	0.000031
7.110000	0.004669	0.000061
7.120000	0.004567	-0.000356
7.130000	0.004934	-0.000092
7.140000	0.005107	0.000193
7.150000	0.004181	-0.000397
7.160000	0.005025	-0.000366
7.170000	0.005269	0.000081
7.180000	0.004506	0.000509
7.190000	0.004476	0.000061
7.200000	0.004903	-0.000671
7.210000	0.005737	0.000041
7.220000	0.004089	-0.000153
7.230000	0.004079	-0.000122
7.240000	0.004049	-0.000264
7.250000	0.003815	-0.000000
7.260000	0.003744	0.000163
7.270000	0.004476	-0.000356
7.280000	0.004374	0.000102
7.290000	0.004618	-0.000417
7.300000	0.004964	0.000427
7.310000	0.005086	-0.000732
7.320000	0.004608	-0.000478
7.330000	0.005025	-0.000193
7.340000	0.004669	0.000132
7.350000	0.003967	-0.000295
7.360000	0.004974	-0.000407
7.370000	0.004974	-0.000264
7.380000	0.003916	0.000122
7.390000	0.004018	-0.000763
7.400000	0.004008	0.000295
7.410000	0.003794	-0.000722
7.420000	0.003021	-0.001597
7.430000	0.004466	-0.000437
7.440000	0.003581	0.000865
7.450000	0.003092	-0.000509
7.460000	0.004201	-0.000529
7.470000	0.005290	0.000417
7.480000	0.004262	-0.000641
7.490000	0.004679	0.000142
7.500000	0.004272	-0.000366
7.510000	0.005117	0.000142
7.520000	0.004730	0.000020
7.530000	0.005025	0.000214
7.540000	0.005198	0.000031
7.550000	0.004690	0.000142
7.560000	0.004049	-0.000529
7.570000	0.005219	-0.000397
7.580000	0.003886	0.000885
7.590000	0.004456	-0.000224
7.600000	0.003876	-0.001129
7.610000	0.005351	-0.000905
7.620000	0.004303	0.000397
7.630000	0.005046	-0.000234
7.640000	0.004649	-0.000010
7.650000	0.004771	0.000498
7.660000	0.004710	0.000173
7.670000	0.005015	-0.000224
7.680000	0.004384	-0.000153
7.690000	0.004313	-0.000407
7.700000	0.004496	0.000936
7.710000	0.004150	-0.000407
7.720000	0.004761	-0.000173
7.730000	0.005147	0.000315
7.740000	0.004272	0.000397
7.750000	0.005096	-0.000051
7.760000	0.004883	0.000305
7.770000	0.004842	0.000071
7.780000	0.005168	-0.000041
7.790000	0.004415	0.000264
7.800000	0.004710	-0.000488
7.810000	0.003998	-0.001638
7.820000	0.005503	-0.000214
7.830000	0.003662	0.000397
7.840000	0.004659	0.000468
7.850000	0.003866	-0.000163
7.860000	0.005402	-0.000041
7.870000	0.004313	0.000783
7.880000	0.004049	0.000081
7.890000	0.005168	-0.000865
7.900000	0.004415	-0.000315
7.910000	0.004873	-0.000387
7.920000	0.004588	0.000224
7.930000	0.004476	0.000173
7.940000	0.003733	0.000366
7.950000	0.004100	0.000417
7.960000	0.004110	0.001099
7.970000	0.004608	-0.000071
7.980000	0.004629	-0.000153
7.990000	0.004262	-0.000112
8.000000	0.004893	-0.000946
8.010000	0.003784	0.000183
8.020000	0.005005	0.000763
8.030000	0.005076	0.000285
8.040000	0.003510	-0.000061
8.050000	0.004771	0.000702
8.060000	0.004527	-0.000458
8.070000	0.004659	0.000020
8.080000	0.004730	-0.000458
8.090000	0.004557	0.000224
8.100000	0.003754	-0.000153
8.110000	0.004283	-0.000448
8.120000	0.005249	-0.001007
8.130000	0.004649	-0.000600
8.140000	0.004598	-0.000407
8.150000	0.004506	-0.000041
8.160000	0.004517	-0.000519
8.170000	0.004822	-0.000763
8.180000	0.004476	0.000549
8.190000	0.004812	-0.000092
8.200000	0.005615	0.000437
8.210000	0.004547	-0.000071
8.220000	0.005534	-0.000193
8.230000	0.004903	-0.000183
8.240000	0.004842	-0.000000
8.250000	0.005015	0.000020
8.260000	0.005137	-0.000987
8.270000	0.004486	0.000020
8.280000	0.005412	0.000132
8.290000	0.004801	-0.000031
8.300000	0.003367	0.000783
8.310000	0.004944	-0.000773
8.320000	0.004283	0.000509
8.330000	0.005147	0.000183
8.340000	0.005005	0.000295
8.350000	0.004740	-0.000142
8.360000	0.004578	-0.000376
8.370000	0.004405	-0.000142
8.380000	0.004354	-0.000804
8.390000	0.004384	-0.000519
8.400000	0.004140	0.000254
8.410000	0.004954	0.000092
8.420000	0.005015	0.000051
8.430000	0.004822	0.000397
8.440000	0.004761	0.000203
8.450000	0.004415	0.000061
8.460000	0.004435	-0.000020
8.470000	0.005208	-0.000458
8.480000	0.005086	0.000142
8.490000	0.004934	0.000397
8.500000	0.005280	-0.000061
8.510000	0.004313	-0.000224
8.520000	0.005107	-0.000366
8.530000	0.004323	0.000295
8.540000	0.004496	0.000244
8.550000	0.004842	0.000539
8.560000	0.005015	0.000224
8.570000	0.003947	0.000702
8.580000	0.004740	0.000417
8.590000	0.004985	0.000600
8.600000	0.004344	-0.001017
8.610000	0.004629	-0.000509
8.620000	0.005208	-0.000031
8.630000	0.004405	0.000417
8.640000	0.003682	-0.000427
8.650000	0.005381	-0.000468
8.660000	0.005514	-0.000081
8.670000	0.004659	0.000315
8.680000	0.005259	-0.000112
8.690000	0.004435	-0.000020
8.700000	0.004496	-0.000071
8.710000	0.004445	-0.000448
8.720000	0.005229	-0.000041
8.730000	0.005341	-0.000366
8.740000	0.004252	-0.001017
8.750000	0.003632	-0.000743
8.760000	0.004761	0.000051
8.770000	0.004405	0.000132
8.780000	0.004171	0.000651
8.790000	0.004720	-0.000203
8.800000	0.004496	-0.000376
8.810000	0.004059	-0.000621
8.820000	0.004852	0.000427
8.830000	0.004293	-0.000000
8.840000	0.004903	0.000203
8.850000	0.004873	0.000183
8.860000	0.005320	0.000203
8.870000	0.005544	-0.000122
8.880000	0.004852	-0.000264
8.890000	0.004730	-0.000295
8.900000	0.004445	-0.000590
8.910000	0.004506	0.000275
8.920000	0.005056	-0.000498
8.930000	0.004649	0.000956
8.940000	0.004527	-0.000519
8.950000	0.004405	0.000763
8.960000	0.004924	0.001017
8.970000	0.004344	-0.000020
8.980000	0.004974	0.000305
8.990000	0.004944	-0.000193
9.000000	0.004801	0.000214
9.010000	0.004862	-0.000092
9.020000	0.005076	-0.000041
9.030000	0.004964	0.000122
9.040000	0.004262	-0.000346
9.050000	0.004832	-0.000305
9.060000	0.005046	0.000356
9.070000	0.004049	0.000000
9.080000	0.005697	-0.000041
9.090000	0.003967	-0.000010
9.100000	0.004751	-0.000590
9.110000	0.004466	-0.000580
9.120000	0.005381	-0.000427
9.130000	0.004791	0.000549
9.140000	0.004425	-0.000468
9.150000	0.004618	-0.000610
9.160000	0.005615	0.000092
9.170000	0.005422	-0.000326
9.180000	0.004710	-0.000417
9.190000	0.005585	0.000427
9.200000	0.004954	-0.000417
9.210000	0.004547	-0.000061
9.220000	0.005575	0.000366
9.230000	0.004578	-0.000234
9.240000	0.004781	0.000122
9.250000	0.004405	-0.000020
9.260000	0.004445	0.000142
9.270000	0.004974	0.000163
9.280000	0.005300	0.000661
9.290000	0.004649	-0.001048
9.300000	0.003815	0.000326
9.310000	0.004232	0.000295
9.320000	0.005249	-0.000437
9.330000	0.004883	0.000092
9.340000	0.004334	-0.000203
9.350000	0.004527	0.000244
9.360000	0.004588	0.000610
9.370000	0.004222	-0.000763
9.380000	0.004323	-0.000092
9.390000	0.004089	0.000529
9.400000	0.005320	0.000061
9.410000	0.004822	-0.000010
9.420000	0.004262	0.000081
9.430000	0.005208	0.000895
9.440000	0.004629	0.000529
9.450000	0.004262	0.000203
9.460000	0.003733	-0.000183
9.470000	0.003682	-0.000326
9.480000	0.004384	0.000122
9.490000	0.004323	0.000203
9.500000	0.004120	-0.000061
9.510000	0.004832	-0.000275
9.520000	0.004293	-0.000712
9.530000	0.004537	0.000183
9.540000	0.004700	0.000234
9.550000	0.004466	-0.000661
9.560000	0.004211	0.001119
9.570000	0.003947	0.000041
9.580000	0.004588	-0.000112
9.590000	0.004456	0.000102
9.600000	0.004201	0.000356
9.610000	0.004639	0.000244
9.620000	0.004456	-0.000580
9.630000	0.004669	-0.000112
9.640000	0.004384	-0.000061
9.650000	0.004506	-0.000041
9.660000	0.004639	-0.000071
9.670000	0.005371	0.000051
9.680000	0.004272	-0.000773
9.690000	0.004242	0.000061
9.700000	0.004669	-0.000020
9.710000	0.004710	-0.000610
9.720000	0.004924	-0.000631
9.730000	0.004598	-0.000112
9.740000	0.004903	0.000305
9.750000	0.004527	0.000346
9.760000	0.004303	0.000254
9.770000	0.005025	0.000081
9.780000	0.004903	0.000071
9.790000	0.004649	-0.000336
9.800000	0.005564	0.000122
9.810000	0.004517	-0.000173
9.820000	0.004496	-0.000234
9.830000	0.004761	0.000031
9.840000	0.003896	0.000793
9.850000	0.004211	-0.000326
9.860000	0.004578	0.001231
9.870000	0.004395	0.000539
9.880000	0.004679	0.000112
9.890000	0.004496	0.000570
9.900000	0.005076	-0.000529
9.910000	0.003886	0.000519
9.920000	0.005280	0.000112
9.930000	0.004140	-0.000041
9.940000	0.005330	-0.000682
9.950000	0.004140	0.000539
9.960000	0.004842	0.000010
9.970000	0.004873	-0.000142
9.980000	0.005229	0.000051
9.990000	0.005035	-0.000102
10.000000	0.004334	0.000254
